Wavelength (nm)	Power (dBm)
1.525E-6	-49.461536
1.525045E-6	-49.35542
1.52509E-6	-49.251836
1.525135E-6	-49.193735
1.52518E-6	-49.08333
1.525225E-6	-48.996295
1.52527E-6	-48.887375
1.525315E-6	-48.820662
1.52536E-6	-48.741935
1.525405E-6	-48.651856
1.52545E-6	-48.557372
1.525495E-6	-48.477117
1.52554E-6	-48.425432
1.525585E-6	-48.33866
1.52563E-6	-48.250684
1.525675E-6	-48.178708
1.52572E-6	-48.088285
1.525765E-6	-48.010681
1.52581E-6	-47.956087
1.525855E-6	-47.896815
1.5259E-6	-47.81202
1.525945E-6	-47.754669
1.52599E-6	-47.682756
1.526035E-6	-47.629592
1.52608E-6	-47.554755
1.526125E-6	-47.515363
1.52617E-6	-47.442452
1.526215E-6	-47.370745
1.52626E-6	-47.307206
1.526305E-6	-47.253804
1.52635E-6	-47.217038
1.526395E-6	-47.155693
1.52644E-6	-47.10411
1.526485E-6	-47.046529
1.52653E-6	-46.970201
1.526575E-6	-46.931463
1.52662E-6	-46.873996
1.526665E-6	-46.848697
1.52671E-6	-46.773673
1.526755E-6	-46.74074
1.5268E-6	-46.685727
1.526845E-6	-46.655462
1.52689E-6	-46.613443
1.526935E-6	-46.567884
1.52698E-6	-46.499459
1.527025E-6	-46.493644
1.52707E-6	-46.418747
1.527115E-6	-46.3865
1.52716E-6	-46.352614
1.527205E-6	-46.337639
1.52725E-6	-46.289321
1.527295E-6	-46.243364
1.52734E-6	-46.225116
1.527385E-6	-46.210573
1.52743E-6	-46.172627
1.527475E-6	-46.140364
1.52752E-6	-46.106567
1.527565E-6	-46.069515
1.52761E-6	-46.071273
1.527655E-6	-46.046736
1.5277E-6	-45.996347
1.527745E-6	-45.967079
1.52779E-6	-45.951663
1.527835E-6	-45.944829
1.52788E-6	-45.924392
1.527925E-6	-45.868679
1.52797E-6	-45.870357
1.528015E-6	-45.858626
1.52806E-6	-45.821963
1.528105E-6	-45.836924
1.52815E-6	-45.772461
1.528195E-6	-45.797141
1.52824E-6	-45.713793
1.528285E-6	-45.726762
1.52833E-6	-45.705707
1.528375E-6	-45.728386
1.52842E-6	-45.723516
1.528465E-6	-45.696024
1.52851E-6	-45.67191
1.528555E-6	-45.68154
1.5286E-6	-45.646335
1.528645E-6	-45.652715
1.52869E-6	-45.639965
1.528735E-6	-45.639965
1.52878E-6	-45.633604
1.528825E-6	-45.581478
1.52887E-6	-45.583049
1.528915E-6	-45.579908
1.52896E-6	-45.575202
1.529005E-6	-45.537736
1.52905E-6	-45.583049
1.529095E-6	-45.579908
1.52914E-6	-45.608253
1.529185E-6	-45.595632
1.52923E-6	-45.523769
1.529275E-6	-45.559552
1.52932E-6	-45.589336
1.529365E-6	-45.590909
1.52941E-6	-45.52842
1.529455E-6	-45.542402
1.5295E-6	-45.545515
1.529545E-6	-45.509847
1.52959E-6	-45.516029
1.529635E-6	-45.495969
1.52968E-6	-45.526869
1.529725E-6	-45.534628
1.52977E-6	-45.533075
1.529815E-6	-45.503673
1.52986E-6	-45.547072
1.529905E-6	-45.579908
1.52995E-6	-45.54863
1.529995E-6	-45.514483
1.53004E-6	-45.52842
1.530085E-6	-45.542402
1.53013E-6	-45.540846
1.530175E-6	-45.505216
1.53022E-6	-45.543958
1.530265E-6	-45.50059
1.53031E-6	-45.516029
1.530355E-6	-45.550189
1.5304E-6	-45.559552
1.530445E-6	-45.542402
1.53049E-6	-45.519123
1.530535E-6	-45.514483
1.53058E-6	-45.534628
1.530625E-6	-45.573635
1.53067E-6	-45.589336
1.530715E-6	-45.586191
1.53076E-6	-45.542402
1.530805E-6	-45.545515
1.53085E-6	-45.573635
1.530895E-6	-45.627252
1.53094E-6	-45.58462
1.530985E-6	-45.575202
1.53103E-6	-45.597208
1.531075E-6	-45.581478
1.53112E-6	-45.606673
1.531165E-6	-45.611413
1.53121E-6	-45.62091
1.531255E-6	-45.636783
1.5313E-6	-45.614577
1.531345E-6	-45.667103
1.53139E-6	-45.638374
1.531435E-6	-45.684754
1.53148E-6	-45.699249
1.531525E-6	-45.652715
1.53157E-6	-45.717032
1.531615E-6	-45.73001
1.53166E-6	-45.684754
1.531705E-6	-45.705707
1.53175E-6	-45.736514
1.531795E-6	-45.759355
1.53184E-6	-45.757719
1.531885E-6	-45.808707
1.53193E-6	-45.792194
1.531975E-6	-45.803746
1.53202E-6	-45.813673
1.532065E-6	-45.830268
1.53211E-6	-45.872036
1.532155E-6	-45.825283
1.5322E-6	-45.840256
1.532245E-6	-45.858626
1.53229E-6	-45.909126
1.532335E-6	-45.912514
1.53238E-6	-45.963648
1.532425E-6	-45.963648
1.53247E-6	-45.958508
1.532515E-6	-45.989443
1.53256E-6	-46.0206
1.532605E-6	-46.046736
1.53265E-6	-46.067759
1.532695E-6	-46.046736
1.53274E-6	-46.062494
1.532785E-6	-46.064248
1.53283E-6	-46.099485
1.532875E-6	-46.124322
1.53292E-6	-46.163641
1.532965E-6	-46.212388
1.53301E-6	-46.170829
1.533055E-6	-46.22876
1.5331E-6	-46.259853
1.533145E-6	-46.280091
1.53319E-6	-46.311555
1.533235E-6	-46.309698
1.53328E-6	-46.339508
1.533325E-6	-46.326441
1.53337E-6	-46.378947
1.533415E-6	-46.414941
1.53346E-6	-46.434006
1.533505E-6	-46.424463
1.53355E-6	-46.439741
1.533595E-6	-46.49752
1.53364E-6	-46.518899
1.533685E-6	-46.556077
1.53373E-6	-46.534514
1.533775E-6	-46.611453
1.53382E-6	-46.655462
1.533865E-6	-46.621416
1.53391E-6	-46.679657
1.533955E-6	-46.687752
1.534E-6	-46.7305
1.534045E-6	-46.726411
1.53409E-6	-46.790233
1.534135E-6	-46.813107
1.53418E-6	-46.838199
1.534225E-6	-46.852903
1.53427E-6	-46.850799
1.534315E-6	-46.92932
1.53436E-6	-46.931463
1.534405E-6	-46.96372
1.53445E-6	-47.011469
1.534495E-6	-47.018021
1.53454E-6	-47.007107
1.534585E-6	-47.079656
1.53463E-6	-47.095202
1.534675E-6	-47.130946
1.53472E-6	-47.137681
1.534765E-6	-47.198771
1.53481E-6	-47.196493
1.534855E-6	-47.221617
1.5349E-6	-47.267672
1.534945E-6	-47.293212
1.53499E-6	-47.32359
1.535035E-6	-47.304871
1.53508E-6	-47.351822
1.535125E-6	-47.377863
1.53517E-6	-47.411234
1.535215E-6	-47.408842
1.53526E-6	-47.490923
1.535305E-6	-47.476325
1.53535E-6	-47.493361
1.535395E-6	-47.542406
1.53544E-6	-47.582046
1.535485E-6	-47.574586
1.53553E-6	-47.594508
1.535575E-6	-47.604503
1.53562E-6	-47.657359
1.535665E-6	-47.692957
1.53571E-6	-47.670039
1.535755E-6	-47.6675
1.5358E-6	-47.708303
1.535845E-6	-47.749493
1.53589E-6	-47.775437
1.535935E-6	-47.780644
1.53598E-6	-47.848914
1.536025E-6	-47.785858
1.53607E-6	-47.862167
1.536115E-6	-47.862167
1.53616E-6	-47.886124
1.536205E-6	-47.915586
1.53625E-6	-47.961515
1.536295E-6	-47.953375
1.53634E-6	-47.972393
1.536385E-6	-47.953375
1.53643E-6	-48.024438
1.536475E-6	-48.007935
1.53652E-6	-47.996968
1.536565E-6	-48.024438
1.53661E-6	-48.052082
1.536655E-6	-48.096683
1.5367E-6	-48.057633
1.536745E-6	-48.065971
1.53679E-6	-48.088285
1.536835E-6	-48.119156
1.53688E-6	-48.155925
1.536925E-6	-48.17015
1.53697E-6	-48.16161
1.537015E-6	-48.198741
1.53706E-6	-48.210231
1.537105E-6	-48.218867
1.53715E-6	-48.207355
1.537195E-6	-48.23041
1.53724E-6	-48.190144
1.537285E-6	-48.227522
1.53733E-6	-48.224635
1.537375E-6	-48.23041
1.53742E-6	-48.256494
1.537465E-6	-48.271053
1.53751E-6	-48.273971
1.537555E-6	-48.253588
1.5376E-6	-48.268137
1.537645E-6	-48.259402
1.53769E-6	-48.303256
1.537735E-6	-48.31208
1.53778E-6	-48.303256
1.537825E-6	-48.285661
1.53787E-6	-48.31208
1.537915E-6	-48.323873
1.53796E-6	-48.291518
1.538005E-6	-48.294449
1.53805E-6	-48.341624
1.538095E-6	-48.306195
1.53814E-6	-48.317973
1.538185E-6	-48.332739
1.53823E-6	-48.341624
1.538275E-6	-48.347557
1.53832E-6	-48.31208
1.538365E-6	-48.33866
1.53841E-6	-48.317973
1.538455E-6	-48.365404
1.5385E-6	-48.356471
1.538545E-6	-48.306195
1.53859E-6	-48.323873
1.538635E-6	-48.320922
1.53868E-6	-48.350526
1.538725E-6	-48.353498
1.53877E-6	-48.356471
1.538815E-6	-48.353498
1.53886E-6	-48.31208
1.538905E-6	-48.320922
1.53895E-6	-48.347557
1.538995E-6	-48.291518
1.53904E-6	-48.329782
1.539085E-6	-48.262312
1.53913E-6	-48.315025
1.539175E-6	-48.291518
1.53922E-6	-48.320922
1.539265E-6	-48.341624
1.53931E-6	-48.31208
1.539355E-6	-48.297383
1.5394E-6	-48.329782
1.539445E-6	-48.33866
1.53949E-6	-48.347557
1.539535E-6	-48.291518
1.53958E-6	-48.285661
1.539625E-6	-48.262312
1.53967E-6	-48.27689
1.539715E-6	-48.288588
1.53976E-6	-48.320922
1.539805E-6	-48.247782
1.53985E-6	-48.253588
1.539895E-6	-48.279812
1.53994E-6	-48.282735
1.539985E-6	-48.253588
1.54003E-6	-48.303256
1.540075E-6	-48.285661
1.54012E-6	-48.250684
1.540165E-6	-48.236193
1.54021E-6	-48.273971
1.540255E-6	-48.273971
1.5403E-6	-48.273971
1.540345E-6	-48.273971
1.54039E-6	-48.241984
1.540435E-6	-48.233301
1.54048E-6	-48.239087
1.540525E-6	-48.204482
1.54057E-6	-48.198741
1.540615E-6	-48.195874
1.54066E-6	-48.198741
1.540705E-6	-48.175853
1.54075E-6	-48.22175
1.540795E-6	-48.193008
1.54084E-6	-48.195874
1.540885E-6	-48.193008
1.54093E-6	-48.218867
1.540975E-6	-48.193008
1.54102E-6	-48.181564
1.541065E-6	-48.164455
1.54111E-6	-48.155925
1.541155E-6	-48.153086
1.5412E-6	-48.164455
1.541245E-6	-48.175853
1.54129E-6	-48.124793
1.541335E-6	-48.124793
1.54138E-6	-48.119156
1.541425E-6	-48.138916
1.54147E-6	-48.138916
1.541515E-6	-48.124793
1.54156E-6	-48.136088
1.541605E-6	-48.136088
1.54165E-6	-48.08549
1.541695E-6	-48.153086
1.54174E-6	-48.119156
1.541785E-6	-48.107905
1.54183E-6	-48.133261
1.541875E-6	-48.074325
1.54192E-6	-48.046539
1.541965E-6	-48.082696
1.54201E-6	-48.052082
1.542055E-6	-48.074325
1.5421E-6	-48.024438
1.542145E-6	-48.052082
1.54219E-6	-48.035475
1.542235E-6	-48.082696
1.54228E-6	-48.043771
1.542325E-6	-48.007935
1.54237E-6	-48.027194
1.542415E-6	-48.016179
1.54246E-6	-48.06041
1.542505E-6	-48.038238
1.54255E-6	-48.06319
1.542595E-6	-48.035475
1.54264E-6	-48.041003
1.542685E-6	-48.032713
1.54273E-6	-48.046539
1.542775E-6	-48.024438
1.54282E-6	-48.021683
1.542865E-6	-47.980569
1.54291E-6	-48.005191
1.542955E-6	-47.983298
1.543E-6	-47.994231
1.543045E-6	-47.986029
1.54309E-6	-47.969671
1.543135E-6	-47.994231
1.54318E-6	-48.021683
1.543225E-6	-48.013429
1.54327E-6	-47.980569
1.543315E-6	-48.024438
1.54336E-6	-48.032713
1.543405E-6	-48.010681
1.54345E-6	-48.005191
1.543495E-6	-47.994231
1.54354E-6	-47.988761
1.543585E-6	-47.986029
1.54363E-6	-47.94525
1.543675E-6	-47.947956
1.54372E-6	-47.977842
1.543765E-6	-47.964232
1.54381E-6	-47.977842
1.543855E-6	-47.975117
1.5439E-6	-47.9588
1.543945E-6	-47.983298
1.54399E-6	-48.041003
1.544035E-6	-48.027194
1.54408E-6	-48.010681
1.544125E-6	-48.010681
1.54417E-6	-48.021683
1.544215E-6	-48.01893
1.54426E-6	-48.052082
1.544305E-6	-47.986029
1.54435E-6	-48.002448
1.544395E-6	-47.966951
1.54444E-6	-47.956087
1.544485E-6	-47.983298
1.54453E-6	-47.986029
1.544575E-6	-48.021683
1.54462E-6	-48.016179
1.544665E-6	-47.956087
1.54471E-6	-47.961515
1.544755E-6	-48.013429
1.5448E-6	-48.041003
1.544845E-6	-48.01893
1.54489E-6	-48.016179
1.544935E-6	-48.021683
1.54498E-6	-48.035475
1.545025E-6	-47.996968
1.54507E-6	-47.996968
1.545115E-6	-47.288557
1.54516E-6	-41.887602
1.545205E-6	-37.342391
1.54525E-6	-35.440898
1.545295E-6	-34.814861
1.54534E-6	-34.805658
1.545385E-6	-34.734023
1.54543E-6	-34.757337
1.545475E-6	-35.066814
1.54552E-6	-36.827727
1.545565E-6	-40.664621
1.54561E-6	-46.205132
1.545655E-6	-47.85421
1.5457E-6	-48.024438
1.545745E-6	-48.057633
1.54579E-6	-48.057633
1.545835E-6	-48.054857
1.54588E-6	-48.068754
1.545925E-6	-48.046539
1.54597E-6	-48.046539
1.546015E-6	-48.071539
1.54606E-6	-48.057633
1.546105E-6	-48.057633
1.54615E-6	-48.04931
1.546195E-6	-48.032713
1.54624E-6	-48.046539
1.546285E-6	-48.041003
1.54633E-6	-48.06041
1.546375E-6	-48.093882
1.54642E-6	-48.105097
1.546465E-6	-48.099486
1.54651E-6	-48.113527
1.546555E-6	-48.091083
1.5466E-6	-48.124793
1.546645E-6	-48.113527
1.54669E-6	-48.105097
1.546735E-6	-48.079904
1.54678E-6	-48.093882
1.546825E-6	-48.093882
1.54687E-6	-48.105097
1.546915E-6	-48.093882
1.54696E-6	-48.088285
1.547005E-6	-48.093882
1.54705E-6	-48.113527
1.547095E-6	-48.136088
1.54714E-6	-48.147412
1.547185E-6	-48.147412
1.54723E-6	-48.164455
1.547275E-6	-48.144578
1.54732E-6	-48.144578
1.547365E-6	-48.121974
1.54741E-6	-48.173001
1.547455E-6	-48.17015
1.5475E-6	-48.147412
1.547545E-6	-48.141746
1.54759E-6	-48.121974
1.547635E-6	-48.167302
1.54768E-6	-48.133261
1.547725E-6	-48.144578
1.54777E-6	-48.133261
1.547815E-6	-48.113527
1.54786E-6	-48.158766
1.547905E-6	-48.147412
1.54795E-6	-48.147412
1.547995E-6	-48.16161
1.54804E-6	-48.17015
1.548085E-6	-48.16161
1.54813E-6	-48.207355
1.548175E-6	-48.201611
1.54822E-6	-48.210231
1.548265E-6	-48.201611
1.54831E-6	-48.181564
1.548355E-6	-48.195874
1.5484E-6	-48.187282
1.548445E-6	-48.198741
1.54849E-6	-48.173001
1.548535E-6	-48.164455
1.54858E-6	-48.164455
1.548625E-6	-48.173001
1.54867E-6	-48.198741
1.548715E-6	-48.210231
1.54876E-6	-48.181564
1.548805E-6	-48.201611
1.54885E-6	-48.241984
1.548895E-6	-48.227522
1.54894E-6	-48.224635
1.548985E-6	-48.213108
1.54903E-6	-48.215987
1.549075E-6	-48.218867
1.54912E-6	-48.201611
1.549165E-6	-48.233301
1.54921E-6	-48.184422
1.549255E-6	-48.190144
1.5493E-6	-48.195874
1.549345E-6	-48.173001
1.54939E-6	-48.187282
1.549435E-6	-48.198741
1.54948E-6	-48.204482
1.549525E-6	-48.213108
1.54957E-6	-48.207355
1.549615E-6	-48.207355
1.54966E-6	-48.239087
1.549705E-6	-48.215987
1.54975E-6	-48.241984
1.549795E-6	-48.207355
1.54984E-6	-48.201611
1.549885E-6	-48.113527
1.54993E-6	-45.762628
1.549975E-6	-39.310724
1.55002E-6	-35.614577
1.550065E-6	-34.339162
1.55011E-6	-34.182778
1.550155E-6	-34.148778
1.5502E-6	-34.082678
1.550245E-6	-34.139756
1.55029E-6	-34.824083
1.550335E-6	-37.392133
1.55038E-6	-42.438205
1.550425E-6	-47.361273
1.55047E-6	-48.119156
1.550515E-6	-48.215987
1.55056E-6	-48.207355
1.550605E-6	-48.198741
1.55065E-6	-48.210231
1.550695E-6	-48.215987
1.55074E-6	-48.227522
1.550785E-6	-48.198741
1.55083E-6	-48.201611
1.550875E-6	-48.190144
1.55092E-6	-48.187282
1.550965E-6	-48.198741
1.55101E-6	-48.187282
1.551055E-6	-48.215987
1.5511E-6	-48.173001
1.551145E-6	-48.193008
1.55119E-6	-48.207355
1.551235E-6	-48.204482
1.55128E-6	-48.215987
1.551325E-6	-48.218867
1.55137E-6	-48.17015
1.551415E-6	-48.184422
1.55146E-6	-48.201611
1.551505E-6	-48.207355
1.55155E-6	-48.204482
1.551595E-6	-48.195874
1.55164E-6	-48.173001
1.551685E-6	-48.138916
1.55173E-6	-48.164455
1.551775E-6	-48.181564
1.55182E-6	-48.173001
1.551865E-6	-48.136088
1.55191E-6	-48.16161
1.551955E-6	-48.155925
1.552E-6	-48.204482
1.552045E-6	-48.195874
1.55209E-6	-48.184422
1.552135E-6	-48.204482
1.55218E-6	-48.195874
1.552225E-6	-48.190144
1.55227E-6	-48.184422
1.552315E-6	-48.198741
1.55236E-6	-48.184422
1.552405E-6	-48.144578
1.55245E-6	-48.138916
1.552495E-6	-48.138916
1.55254E-6	-48.144578
1.552585E-6	-48.16161
1.55263E-6	-48.124793
1.552675E-6	-48.133261
1.55272E-6	-48.136088
1.552765E-6	-48.167302
1.55281E-6	-48.167302
1.552855E-6	-48.17015
1.5529E-6	-48.158766
1.552945E-6	-48.155925
1.55299E-6	-48.16161
1.553035E-6	-48.181564
1.55308E-6	-48.175853
1.553125E-6	-48.167302
1.55317E-6	-48.124793
1.553215E-6	-48.119156
1.55326E-6	-48.124793
1.553305E-6	-48.124793
1.55335E-6	-48.141746
1.553395E-6	-48.141746
1.55344E-6	-48.113527
1.553485E-6	-48.110715
1.55353E-6	-48.133261
1.553575E-6	-48.136088
1.55362E-6	-48.141746
1.553665E-6	-48.136088
1.55371E-6	-48.150248
1.553755E-6	-48.150248
1.5538E-6	-48.144578
1.553845E-6	-48.158766
1.55389E-6	-48.141746
1.553935E-6	-48.141746
1.55398E-6	-48.107905
1.554025E-6	-48.093882
1.55407E-6	-48.113527
1.554115E-6	-48.113527
1.55416E-6	-48.138916
1.554205E-6	-48.105097
1.55425E-6	-48.068754
1.554295E-6	-48.088285
1.55434E-6	-48.124793
1.554385E-6	-48.138916
1.55443E-6	-48.133261
1.554475E-6	-48.119156
1.55452E-6	-48.124793
1.554565E-6	-48.158766
1.55461E-6	-48.138916
1.554655E-6	-48.136088
1.5547E-6	-48.113527
1.554745E-6	-48.113527
1.55479E-6	-48.105097
1.554835E-6	-48.082696
1.55488E-6	-48.096683
1.554925E-6	-48.091083
1.55497E-6	-48.088285
1.555015E-6	-48.06041
1.55506E-6	-48.08549
1.555105E-6	-48.079904
1.55515E-6	-48.08549
1.555195E-6	-48.116341
1.55524E-6	-48.124793
1.555285E-6	-48.113527
1.55533E-6	-48.127614
1.555375E-6	-48.144578
1.55542E-6	-48.127614
1.555465E-6	-48.119156
1.55551E-6	-48.099486
1.555555E-6	-48.099486
1.5556E-6	-48.088285
1.555645E-6	-48.088285
1.55569E-6	-48.077114
1.555735E-6	-48.08549
1.55578E-6	-48.088285
1.555825E-6	-48.057633
1.55587E-6	-48.068754
1.555915E-6	-48.08549
1.55596E-6	-48.082696
1.556005E-6	-48.116341
1.55605E-6	-48.105097
1.556095E-6	-48.110715
1.55614E-6	-48.119156
1.556185E-6	-48.150248
1.55623E-6	-48.127614
1.556275E-6	-48.107905
1.55632E-6	-48.105097
1.556365E-6	-48.096683
1.55641E-6	-48.113527
1.556455E-6	-48.107905
1.5565E-6	-48.088285
1.556545E-6	-48.038238
1.55659E-6	-48.068754
1.556635E-6	-48.082696
1.55668E-6	-48.06319
1.556725E-6	-48.079904
1.55677E-6	-48.08549
1.556815E-6	-48.091083
1.55686E-6	-48.093882
1.556905E-6	-48.144578
1.55695E-6	-48.150248
1.556995E-6	-48.141746
1.55704E-6	-48.144578
1.557085E-6	-48.138916
1.55713E-6	-48.133261
1.557175E-6	-48.133261
1.55722E-6	-48.130437
1.557265E-6	-48.099486
1.55731E-6	-48.091083
1.557355E-6	-48.107905
1.5574E-6	-48.121974
1.557445E-6	-48.133261
1.55749E-6	-48.113527
1.557535E-6	-48.107905
1.55758E-6	-48.113527
1.557625E-6	-48.127614
1.55767E-6	-48.173001
1.557715E-6	-48.187282
1.55776E-6	-48.175853
1.557805E-6	-48.167302
1.55785E-6	-48.17015
1.557895E-6	-48.153086
1.55794E-6	-48.195874
1.557985E-6	-48.193008
1.55803E-6	-48.164455
1.558075E-6	-48.141746
1.55812E-6	-48.141746
1.558165E-6	-48.144578
1.55821E-6	-48.155925
1.558255E-6	-48.16161
1.5583E-6	-48.16161
1.558345E-6	-48.138916
1.55839E-6	-48.164455
1.558435E-6	-48.187282
1.55848E-6	-48.247782
1.558525E-6	-48.259402
1.55857E-6	-48.241984
1.558615E-6	-48.233301
1.55866E-6	-48.236193
1.558705E-6	-48.256494
1.55875E-6	-48.271053
1.558795E-6	-48.239087
1.55884E-6	-48.227522
1.558885E-6	-48.218867
1.55893E-6	-48.227522
1.558975E-6	-48.241984
1.55902E-6	-48.265224
1.559065E-6	-48.253588
1.55911E-6	-48.27689
1.559155E-6	-48.265224
1.5592E-6	-48.268137
1.559245E-6	-48.306195
1.55929E-6	-48.362425
1.559335E-6	-48.344589
1.55938E-6	-48.344589
1.559425E-6	-48.368386
1.55947E-6	-48.356471
1.559515E-6	-48.362425
1.55956E-6	-48.395315
1.559605E-6	-48.398317
1.55965E-6	-48.37137
1.559695E-6	-48.356471
1.55974E-6	-48.362425
1.559785E-6	-48.368386
1.55983E-6	-48.389316
1.559875E-6	-48.398317
1.55992E-6	-48.407337
1.559965E-6	-48.389316
1.56001E-6	-48.419392
1.560055E-6	-48.45576
1.5601E-6	-48.471004
1.560145E-6	-48.471004
1.56019E-6	-48.477117
1.560235E-6	-48.501653
1.56028E-6	-48.513973
1.560325E-6	-48.517059
1.56037E-6	-48.529423
1.560415E-6	-48.51089
1.56046E-6	-48.50473
1.560505E-6	-48.51089
1.56055E-6	-48.492436
1.560595E-6	-48.523237
1.56064E-6	-48.529423
1.560685E-6	-48.517059
1.56073E-6	-48.501653
1.560775E-6	-48.517059
1.56082E-6	-48.576105
1.560865E-6	-48.588639
1.56091E-6	-48.623295
1.560955E-6	-48.610661
1.561E-6	-48.598063
1.561045E-6	-48.620133
1.56109E-6	-48.667805
1.561135E-6	-48.667805
1.56118E-6	-48.664611
1.561225E-6	-48.655041
1.56127E-6	-48.651856
1.561315E-6	-48.645493
1.56136E-6	-48.671002
1.561405E-6	-48.680607
1.56145E-6	-48.690233
1.561495E-6	-48.690233
1.56154E-6	-48.703101
1.561585E-6	-48.696662
1.56163E-6	-48.735439
1.561675E-6	-48.748442
1.56172E-6	-48.761484
1.561765E-6	-48.758219
1.56181E-6	-48.794261
1.561855E-6	-48.787685
1.5619E-6	-48.817353
1.561945E-6	-48.820662
1.56199E-6	-48.837244
1.562035E-6	-48.820662
1.56208E-6	-48.810742
1.562125E-6	-48.823973
1.56217E-6	-48.833923
1.562215E-6	-48.843895
1.56226E-6	-48.827287
1.562305E-6	-48.830604
1.56235E-6	-48.867253
1.562395E-6	-48.863908
1.56244E-6	-48.887375
1.562485E-6	-48.900841
1.56253E-6	-48.941493
1.562575E-6	-48.931295
1.56262E-6	-48.958544
1.562665E-6	-48.965384
1.56271E-6	-48.965384
1.562755E-6	-48.985966
1.5628E-6	-48.975663
1.562845E-6	-48.989406
1.56289E-6	-48.999743
1.562935E-6	-49.006647
1.56298E-6	-48.985966
1.563025E-6	-48.999743
1.56307E-6	-48.999743
1.563115E-6	-48.982529
1.56316E-6	-49.017025
1.563205E-6	-49.037854
1.56325E-6	-49.08333
1.563295E-6	-49.093893
1.56334E-6	-49.111554
1.563385E-6	-49.086848
1.56343E-6	-49.093893
1.563475E-6	-49.132843
1.56352E-6	-49.136402
1.563565E-6	-49.139963
1.56361E-6	-49.154237
1.563655E-6	-49.172146
1.5637E-6	-49.161392
1.563745E-6	-49.168559
1.56379E-6	-49.164974
1.563835E-6	-49.168559
1.56388E-6	-49.179331
1.563925E-6	-49.179331
1.56397E-6	-49.19013
1.564015E-6	-49.193735
1.56406E-6	-49.208188
1.564105E-6	-49.222688
1.56415E-6	-49.240882
1.564195E-6	-49.270153
1.56424E-6	-49.292235
1.564285E-6	-49.30702
1.56433E-6	-49.288547
1.564375E-6	-49.30702
1.56442E-6	-49.321855
1.564465E-6	-49.329291
1.56451E-6	-49.34047
1.564555E-6	-49.344203
1.5646E-6	-49.321855
1.564645E-6	-49.336741
1.56469E-6	-49.344203
1.564735E-6	-49.347939
1.56478E-6	-49.37418
1.564825E-6	-49.41574
1.56487E-6	-49.408154
1.564915E-6	-49.393022
1.56496E-6	-49.430951
1.565005E-6	-49.473061
1.56505E-6	-49.473061
1.565095E-6	-49.492337
1.56514E-6	-49.492337
1.565185E-6	-49.496202
1.56523E-6	-49.523358
1.565275E-6	-49.542859
1.56532E-6	-49.54677
1.565365E-6	-49.535048
1.56541E-6	-49.523358
1.565455E-6	-49.50782
1.5655E-6	-49.535048
1.565545E-6	-49.538952
1.56559E-6	-49.590023
1.565635E-6	-49.558524
1.56568E-6	-49.590023
1.565725E-6	-49.601894
1.56577E-6	-49.645703
1.565815E-6	-49.661743
1.56586E-6	-49.649707
1.565905E-6	-49.657727
1.56595E-6	-49.669786
1.565995E-6	-49.685915
1.56604E-6	-49.706162
1.566085E-6	-49.710223
1.56613E-6	-49.734667
1.566175E-6	-49.698052
1.56622E-6	-49.694003
1.566265E-6	-49.718356
1.56631E-6	-49.718356
1.566355E-6	-49.730584
1.5664E-6	-49.75925
1.566445E-6	-49.75104
1.56649E-6	-49.742846
1.566535E-6	-49.75925
1.56658E-6	-49.812995
1.566625E-6	-49.804683
1.56667E-6	-49.808837
1.566715E-6	-49.842212
1.56676E-6	-49.842212
1.566805E-6	-49.850597
1.56685E-6	-49.875846
1.566895E-6	-49.875846
1.56694E-6	-49.909743
1.566985E-6	-49.905491
1.56703E-6	-49.888526
1.567075E-6	-49.897
1.56712E-6	-49.909743
1.567165E-6	-49.948195
1.56721E-6	-49.969705
1.567255E-6	-49.97402
1.5673E-6	-49.948195
1.567345E-6	-50
1.56739E-6	-50.037949
1.567435E-6	-50.048037
1.56748E-6	-50.086853
1.567525E-6	-50.097056
1.56757E-6	-50.101943
1.567615E-6	-50.161032
1.56766E-6	-50.185892
1.567705E-6	-50.246601
1.56775E-6	-50.266874
1.567795E-6	-50.256726
1.56784E-6	-50.292348
1.567885E-6	-50.349395
1.56793E-6	-50.417229
1.567975E-6	-50.466269
1.56802E-6	-50.504148
1.568065E-6	-50.569014
1.56811E-6	-50.613302
1.568155E-6	-50.663103
1.5682E-6	-50.764969
1.568245E-6	-50.857097
1.56829E-6	-50.910327
1.568335E-6	-51.000154
1.56838E-6	-51.054624
1.568425E-6	-51.168498
1.56847E-6	-51.263888
1.568515E-6	-51.36142
1.56856E-6	-51.453904
1.568605E-6	-51.529211
1.56865E-6	-51.646265
1.568695E-6	-51.774397
1.56874E-6	-51.877553
1.568785E-6	-51.989395
1.56883E-6	-52.097148
1.568875E-6	-52.191069
1.56892E-6	-52.329184
1.568965E-6	-52.445825
1.56901E-6	-52.564902
1.569055E-6	-52.688949
1.5691E-6	-52.824127
1.569145E-6	-52.880241
1.56919E-6	-53.021606
1.569235E-6	-53.147062
1.56928E-6	-53.271635
1.569325E-6	-53.394191
1.56937E-6	-53.495953
1.569415E-6	-53.59618
1.56946E-6	-53.696738
1.569505E-6	-53.816381
1.56955E-6	-53.919021
1.569595E-6	-54.004444
1.56964E-6	-54.10609
1.569685E-6	-54.2159
1.56973E-6	-54.307432
1.569775E-6	-54.40692
1.56982E-6	-54.506288
1.569865E-6	-54.549404
1.56991E-6	-54.652126
1.569955E-6	-54.730149
1.57E-6	-54.810914
