Wavelength (nm)	Power (dBm)
1.525E-6	-49.037854
1.525045E-6	-48.948306
1.52509E-6	-48.87395
1.525135E-6	-48.758219
1.52518E-6	-48.664611
1.525225E-6	-48.566729
1.52527E-6	-48.477117
1.525315E-6	-48.404328
1.52536E-6	-48.317973
1.525405E-6	-48.23041
1.52545E-6	-48.147412
1.525495E-6	-48.071539
1.52554E-6	-47.994231
1.525585E-6	-47.920965
1.52563E-6	-47.843624
1.525675E-6	-47.754669
1.52572E-6	-47.685304
1.525765E-6	-47.614521
1.52581E-6	-47.557229
1.525855E-6	-47.483618
1.5259E-6	-47.404061
1.525945E-6	-47.328283
1.52599E-6	-47.267672
1.526035E-6	-47.205612
1.52608E-6	-47.151183
1.526125E-6	-47.084092
1.52617E-6	-47.020208
1.526215E-6	-46.955095
1.52626E-6	-46.893067
1.526305E-6	-46.838199
1.52635E-6	-46.779876
1.526395E-6	-46.726411
1.52644E-6	-46.663512
1.526485E-6	-46.603498
1.52653E-6	-46.560009
1.526575E-6	-46.520848
1.52662E-6	-46.466609
1.526665E-6	-46.411138
1.52671E-6	-46.358244
1.526755E-6	-46.320853
1.5268E-6	-46.281935
1.526845E-6	-46.236056
1.52689E-6	-46.188849
1.526935E-6	-46.129663
1.52698E-6	-46.099485
1.527025E-6	-46.06074
1.52707E-6	-46.024076
1.527115E-6	-45.991168
1.52716E-6	-45.958508
1.527205E-6	-45.90405
1.52725E-6	-45.845258
1.527295E-6	-45.830268
1.52734E-6	-45.826944
1.527385E-6	-45.783961
1.52743E-6	-45.746288
1.527475E-6	-45.700863
1.52752E-6	-45.675117
1.527565E-6	-45.676722
1.52761E-6	-45.630427
1.527655E-6	-45.606673
1.5277E-6	-45.540846
1.527745E-6	-45.52842
1.52779E-6	-45.512937
1.527835E-6	-45.483671
1.52788E-6	-45.482136
1.527925E-6	-45.456125
1.52797E-6	-45.418156
1.528015E-6	-45.391022
1.52806E-6	-45.388017
1.528105E-6	-45.382014
1.52815E-6	-45.343198
1.528195E-6	-45.318004
1.52824E-6	-45.319482
1.528285E-6	-45.297366
1.52833E-6	-45.292956
1.528375E-6	-45.270973
1.52842E-6	-45.259295
1.528465E-6	-45.249102
1.52851E-6	-45.237482
1.528555E-6	-45.234582
1.5286E-6	-45.217222
1.528645E-6	-45.202808
1.52869E-6	-45.188441
1.528735E-6	-45.171264
1.52878E-6	-45.176982
1.528825E-6	-45.168408
1.52887E-6	-45.15131
1.528915E-6	-45.132862
1.52896E-6	-45.130031
1.529005E-6	-45.128616
1.52905E-6	-45.137112
1.529095E-6	-45.113083
1.52914E-6	-45.110265
1.529185E-6	-45.106041
1.52923E-6	-45.083582
1.529275E-6	-45.086383
1.52932E-6	-45.097605
1.529365E-6	-45.09901
1.52941E-6	-45.071
1.529455E-6	-45.066814
1.5295E-6	-45.044557
1.529545E-6	-45.036239
1.52959E-6	-45.043169
1.529635E-6	-45.043169
1.52968E-6	-45.040396
1.529725E-6	-45.016894
1.52977E-6	-45.027938
1.529815E-6	-45.072396
1.52986E-6	-45.040396
1.529905E-6	-45.055671
1.52995E-6	-45.040396
1.529995E-6	-45.027938
1.53004E-6	-45.016894
1.530085E-6	-45.058454
1.53013E-6	-45.058454
1.530175E-6	-45.023794
1.53022E-6	-45.043169
1.530265E-6	-45.023794
1.53031E-6	-45.044557
1.530355E-6	-45.044557
1.5304E-6	-45.03901
1.530445E-6	-45.037625
1.53049E-6	-45.016894
1.530535E-6	-45.059846
1.53058E-6	-45.044557
1.530625E-6	-45.062632
1.53067E-6	-45.082182
1.530715E-6	-45.062632
1.53076E-6	-45.076587
1.530805E-6	-45.077985
1.53085E-6	-45.100415
1.530895E-6	-45.09199
1.53094E-6	-45.077985
1.530985E-6	-45.103227
1.53103E-6	-45.084982
1.531075E-6	-45.097605
1.53112E-6	-45.121549
1.531165E-6	-45.118725
1.53121E-6	-45.101821
1.531255E-6	-45.132862
1.5313E-6	-45.130031
1.531345E-6	-45.168408
1.53139E-6	-45.174122
1.531435E-6	-45.178413
1.53148E-6	-45.185574
1.531525E-6	-45.201369
1.53157E-6	-45.238933
1.531615E-6	-45.215778
1.53166E-6	-45.221555
1.531705E-6	-45.250557
1.53175E-6	-45.22734
1.531795E-6	-45.252012
1.53184E-6	-45.318004
1.531885E-6	-45.310622
1.53193E-6	-45.292956
1.531975E-6	-45.307673
1.53202E-6	-45.318004
1.532065E-6	-45.350636
1.53211E-6	-45.389519
1.532155E-6	-45.385015
1.5322E-6	-45.418156
1.532245E-6	-45.434821
1.53229E-6	-45.459177
1.532335E-6	-45.486742
1.53238E-6	-45.492891
1.532425E-6	-45.495969
1.53247E-6	-45.509847
1.532515E-6	-45.511392
1.53256E-6	-45.553308
1.532605E-6	-45.559552
1.53265E-6	-45.606673
1.532695E-6	-45.603516
1.53274E-6	-45.617742
1.532785E-6	-45.647929
1.53283E-6	-45.68154
1.532875E-6	-45.704092
1.53292E-6	-45.743028
1.532965E-6	-45.734887
1.53301E-6	-45.764265
1.533055E-6	-45.810362
1.5331E-6	-45.840256
1.533145E-6	-45.845258
1.53319E-6	-45.872036
1.533235E-6	-45.900669
1.53328E-6	-45.912514
1.533325E-6	-45.938006
1.53337E-6	-45.992894
1.533415E-6	-46.017127
1.53346E-6	-46.011923
1.533505E-6	-46.032777
1.53355E-6	-46.088884
1.533595E-6	-46.124322
1.53364E-6	-46.174427
1.533685E-6	-46.187044
1.53373E-6	-46.196078
1.533775E-6	-46.247023
1.53382E-6	-46.265363
1.533865E-6	-46.311555
1.53391E-6	-46.348866
1.533955E-6	-46.360122
1.534E-6	-46.380834
1.534045E-6	-46.430186
1.53409E-6	-46.464684
1.534135E-6	-46.489771
1.53418E-6	-46.50334
1.534225E-6	-46.509168
1.53427E-6	-46.542343
1.534315E-6	-46.611453
1.53436E-6	-46.633402
1.534405E-6	-46.667543
1.53445E-6	-46.689778
1.534495E-6	-46.7305
1.53454E-6	-46.767479
1.534585E-6	-46.823545
1.53463E-6	-46.850799
1.534675E-6	-46.88458
1.53472E-6	-46.918626
1.534765E-6	-46.957249
1.53481E-6	-46.965879
1.534855E-6	-47.004927
1.5349E-6	-47.039933
1.534945E-6	-47.064165
1.53499E-6	-47.077439
1.535035E-6	-47.110804
1.53508E-6	-47.139929
1.535125E-6	-47.191941
1.53517E-6	-47.228494
1.535215E-6	-47.260732
1.53526E-6	-47.295541
1.535305E-6	-47.309543
1.53535E-6	-47.382615
1.535395E-6	-47.420815
1.53544E-6	-47.420815
1.535485E-6	-47.454519
1.53553E-6	-47.476325
1.535575E-6	-47.4958
1.53562E-6	-47.567139
1.535665E-6	-47.589518
1.53571E-6	-47.592012
1.535755E-6	-47.599502
1.5358E-6	-47.659892
1.535845E-6	-47.690404
1.53589E-6	-47.715996
1.535935E-6	-47.731424
1.53598E-6	-47.75208
1.536025E-6	-47.775437
1.53607E-6	-47.835702
1.536115E-6	-47.867479
1.53616E-6	-47.93444
1.536205E-6	-47.942545
1.53625E-6	-47.942545
1.536295E-6	-47.964232
1.53634E-6	-47.994231
1.536385E-6	-48.032713
1.53643E-6	-48.043771
1.536475E-6	-48.074325
1.53652E-6	-48.06041
1.536565E-6	-48.077114
1.53661E-6	-48.107905
1.536655E-6	-48.17015
1.5367E-6	-48.175853
1.536745E-6	-48.167302
1.53679E-6	-48.184422
1.536835E-6	-48.253588
1.53688E-6	-48.262312
1.536925E-6	-48.31208
1.53697E-6	-48.300318
1.537015E-6	-48.309136
1.53706E-6	-48.33866
1.537105E-6	-48.368386
1.53715E-6	-48.401322
1.537195E-6	-48.392314
1.53724E-6	-48.380334
1.537285E-6	-48.395315
1.53733E-6	-48.419392
1.537375E-6	-48.434508
1.53742E-6	-48.443604
1.537465E-6	-48.458805
1.53751E-6	-48.443604
1.537555E-6	-48.474059
1.5376E-6	-48.50473
1.537645E-6	-48.513973
1.53769E-6	-48.557372
1.537735E-6	-48.551146
1.53778E-6	-48.551146
1.537825E-6	-48.548036
1.53787E-6	-48.563608
1.537915E-6	-48.591778
1.53796E-6	-48.588639
1.538005E-6	-48.566729
1.53805E-6	-48.601209
1.538095E-6	-48.588639
1.53814E-6	-48.601209
1.538185E-6	-48.610661
1.53823E-6	-48.632794
1.538275E-6	-48.616973
1.53832E-6	-48.604357
1.538365E-6	-48.623295
1.53841E-6	-48.639139
1.538455E-6	-48.648673
1.5385E-6	-48.648673
1.538545E-6	-48.655041
1.53859E-6	-48.661419
1.538635E-6	-48.664611
1.53868E-6	-48.651856
1.538725E-6	-48.674202
1.53877E-6	-48.683813
1.538815E-6	-48.651856
1.53886E-6	-48.655041
1.538905E-6	-48.664611
1.53895E-6	-48.677403
1.538995E-6	-48.661419
1.53904E-6	-48.664611
1.539085E-6	-48.655041
1.53913E-6	-48.664611
1.539175E-6	-48.648673
1.53922E-6	-48.680607
1.539265E-6	-48.664611
1.53931E-6	-48.671002
1.539355E-6	-48.651856
1.5394E-6	-48.674202
1.539445E-6	-48.680607
1.53949E-6	-48.661419
1.539535E-6	-48.667805
1.53958E-6	-48.658229
1.539625E-6	-48.626459
1.53967E-6	-48.639139
1.539715E-6	-48.610661
1.53976E-6	-48.626459
1.539805E-6	-48.613816
1.53985E-6	-48.610661
1.539895E-6	-48.620133
1.53994E-6	-48.626459
1.539985E-6	-48.623295
1.54003E-6	-48.623295
1.540075E-6	-48.607508
1.54012E-6	-48.579235
1.540165E-6	-48.629625
1.54021E-6	-48.598063
1.540255E-6	-48.604357
1.5403E-6	-48.582368
1.540345E-6	-48.576105
1.54039E-6	-48.585502
1.540435E-6	-48.560489
1.54048E-6	-48.569852
1.540525E-6	-48.520147
1.54057E-6	-48.526329
1.540615E-6	-48.51089
1.54066E-6	-48.51089
1.540705E-6	-48.523237
1.54075E-6	-48.513973
1.540795E-6	-48.526329
1.54084E-6	-48.50473
1.540885E-6	-48.507809
1.54093E-6	-48.53252
1.540975E-6	-48.526329
1.54102E-6	-48.51089
1.541065E-6	-48.477117
1.54111E-6	-48.480176
1.541155E-6	-48.477117
1.5412E-6	-48.483238
1.541245E-6	-48.461851
1.54129E-6	-48.431481
1.541335E-6	-48.416375
1.54138E-6	-48.401322
1.541425E-6	-48.428456
1.54147E-6	-48.437538
1.541515E-6	-48.428456
1.54156E-6	-48.392314
1.541605E-6	-48.410347
1.54165E-6	-48.416375
1.541695E-6	-48.404328
1.54174E-6	-48.41336
1.541785E-6	-48.407337
1.54183E-6	-48.383326
1.541875E-6	-48.374356
1.54192E-6	-48.383326
1.541965E-6	-48.374356
1.54201E-6	-48.344589
1.542055E-6	-48.350526
1.5421E-6	-48.317973
1.542145E-6	-48.332739
1.54219E-6	-48.326827
1.542235E-6	-48.320922
1.54228E-6	-48.326827
1.542325E-6	-48.300318
1.54237E-6	-48.31208
1.542415E-6	-48.320922
1.54246E-6	-48.309136
1.542505E-6	-48.323873
1.54255E-6	-48.306195
1.542595E-6	-48.297383
1.54264E-6	-48.31208
1.542685E-6	-48.309136
1.54273E-6	-48.31208
1.542775E-6	-48.306195
1.54282E-6	-48.271053
1.542865E-6	-48.259402
1.54291E-6	-48.262312
1.542955E-6	-48.262312
1.543E-6	-48.259402
1.543045E-6	-48.271053
1.54309E-6	-48.259402
1.543135E-6	-48.259402
1.54318E-6	-48.250684
1.543225E-6	-48.262312
1.54327E-6	-48.279812
1.543315E-6	-48.285661
1.54336E-6	-48.282735
1.543405E-6	-48.256494
1.54345E-6	-48.262312
1.543495E-6	-48.271053
1.54354E-6	-48.271053
1.543585E-6	-48.236193
1.54363E-6	-48.236193
1.543675E-6	-48.239087
1.54372E-6	-48.233301
1.543765E-6	-48.241984
1.54381E-6	-48.253588
1.543855E-6	-48.215987
1.5439E-6	-48.236193
1.543945E-6	-48.236193
1.54399E-6	-48.247782
1.544035E-6	-48.262312
1.54408E-6	-48.259402
1.544125E-6	-48.236193
1.54417E-6	-48.27689
1.544215E-6	-48.259402
1.54426E-6	-48.273971
1.544305E-6	-48.271053
1.54435E-6	-48.253588
1.544395E-6	-48.236193
1.54444E-6	-48.23041
1.544485E-6	-48.23041
1.54453E-6	-48.256494
1.544575E-6	-48.22175
1.54462E-6	-48.233301
1.544665E-6	-48.233301
1.54471E-6	-48.253588
1.544755E-6	-48.265224
1.5448E-6	-48.271053
1.544845E-6	-48.273971
1.54489E-6	-48.300318
1.544935E-6	-48.256494
1.54498E-6	-48.300318
1.545025E-6	-48.297383
1.54507E-6	-48.244882
1.545115E-6	-47.260732
1.54516E-6	-41.195866
1.545205E-6	-36.68168
1.54525E-6	-34.758636
1.545295E-6	-34.286406
1.54534E-6	-34.211317
1.545385E-6	-34.177093
1.54543E-6	-34.20445
1.545475E-6	-34.522253
1.54552E-6	-36.395959
1.545565E-6	-40.329203
1.54561E-6	-46.343249
1.545655E-6	-48.082696
1.5457E-6	-48.262312
1.545745E-6	-48.309136
1.54579E-6	-48.329782
1.545835E-6	-48.326827
1.54588E-6	-48.329782
1.545925E-6	-48.320922
1.54597E-6	-48.315025
1.546015E-6	-48.309136
1.54606E-6	-48.315025
1.546105E-6	-48.323873
1.54615E-6	-48.315025
1.546195E-6	-48.315025
1.54624E-6	-48.317973
1.546285E-6	-48.326827
1.54633E-6	-48.359447
1.546375E-6	-48.350526
1.54642E-6	-48.347557
1.546465E-6	-48.365404
1.54651E-6	-48.383326
1.546555E-6	-48.383326
1.5466E-6	-48.398317
1.546645E-6	-48.398317
1.54669E-6	-48.392314
1.546735E-6	-48.377344
1.54678E-6	-48.383326
1.546825E-6	-48.359447
1.54687E-6	-48.365404
1.546915E-6	-48.380334
1.54696E-6	-48.362425
1.547005E-6	-48.383326
1.54705E-6	-48.389316
1.547095E-6	-48.398317
1.54714E-6	-48.410347
1.547185E-6	-48.416375
1.54723E-6	-48.419392
1.547275E-6	-48.422411
1.54732E-6	-48.419392
1.547365E-6	-48.452718
1.54741E-6	-48.437538
1.547455E-6	-48.452718
1.5475E-6	-48.443604
1.547545E-6	-48.443604
1.54759E-6	-48.443604
1.547635E-6	-48.434508
1.54768E-6	-48.443604
1.547725E-6	-48.428456
1.54777E-6	-48.419392
1.547815E-6	-48.434508
1.54786E-6	-48.461851
1.547905E-6	-48.474059
1.54795E-6	-48.471004
1.547995E-6	-48.486301
1.54804E-6	-48.501653
1.548085E-6	-48.517059
1.54813E-6	-48.517059
1.548175E-6	-48.520147
1.54822E-6	-48.517059
1.548265E-6	-48.517059
1.54831E-6	-48.513973
1.548355E-6	-48.507809
1.5484E-6	-48.50473
1.548445E-6	-48.498578
1.54849E-6	-48.477117
1.548535E-6	-48.477117
1.54858E-6	-48.483238
1.548625E-6	-48.498578
1.54867E-6	-48.51089
1.548715E-6	-48.513973
1.54876E-6	-48.523237
1.548805E-6	-48.51089
1.54885E-6	-48.529423
1.548895E-6	-48.566729
1.54894E-6	-48.563608
1.548985E-6	-48.548036
1.54903E-6	-48.554258
1.549075E-6	-48.548036
1.54912E-6	-48.557372
1.549165E-6	-48.557372
1.54921E-6	-48.526329
1.549255E-6	-48.523237
1.5493E-6	-48.526329
1.549345E-6	-48.535619
1.54939E-6	-48.535619
1.549435E-6	-48.53252
1.54948E-6	-48.554258
1.549525E-6	-48.529423
1.54957E-6	-48.551146
1.549615E-6	-48.563608
1.54966E-6	-48.591778
1.549705E-6	-48.59492
1.54975E-6	-48.591778
1.549795E-6	-48.572978
1.54984E-6	-48.563608
1.549885E-6	-48.45576
1.54993E-6	-45.370034
1.549975E-6	-38.709549
1.55002E-6	-34.999008
1.550065E-6	-33.820566
1.55011E-6	-33.642148
1.550155E-6	-33.572388
1.5502E-6	-33.558569
1.550245E-6	-33.611116
1.55029E-6	-34.334447
1.550335E-6	-37.050931
1.55038E-6	-42.324731
1.550425E-6	-47.652297
1.55047E-6	-48.480176
1.550515E-6	-48.572978
1.55056E-6	-48.576105
1.550605E-6	-48.591778
1.55065E-6	-48.601209
1.550695E-6	-48.616973
1.55074E-6	-48.598063
1.550785E-6	-48.582368
1.55083E-6	-48.563608
1.550875E-6	-48.544928
1.55092E-6	-48.554258
1.550965E-6	-48.557372
1.55101E-6	-48.569852
1.551055E-6	-48.563608
1.5511E-6	-48.551146
1.551145E-6	-48.572978
1.55119E-6	-48.601209
1.551235E-6	-48.610661
1.55128E-6	-48.613816
1.551325E-6	-48.601209
1.55137E-6	-48.588639
1.551415E-6	-48.607508
1.55146E-6	-48.601209
1.551505E-6	-48.613816
1.55155E-6	-48.591778
1.551595E-6	-48.576105
1.55164E-6	-48.548036
1.551685E-6	-48.557372
1.55173E-6	-48.566729
1.551775E-6	-48.563608
1.55182E-6	-48.554258
1.551865E-6	-48.541823
1.55191E-6	-48.551146
1.551955E-6	-48.582368
1.552E-6	-48.598063
1.552045E-6	-48.604357
1.55209E-6	-48.601209
1.552135E-6	-48.579235
1.55218E-6	-48.607508
1.552225E-6	-48.601209
1.55227E-6	-48.59492
1.552315E-6	-48.601209
1.55236E-6	-48.576105
1.552405E-6	-48.53872
1.55245E-6	-48.548036
1.552495E-6	-48.544928
1.55254E-6	-48.557372
1.552585E-6	-48.551146
1.55263E-6	-48.551146
1.552675E-6	-48.548036
1.55272E-6	-48.548036
1.552765E-6	-48.579235
1.55281E-6	-48.598063
1.552855E-6	-48.585502
1.5529E-6	-48.59492
1.552945E-6	-48.588639
1.55299E-6	-48.59492
1.553035E-6	-48.59492
1.55308E-6	-48.604357
1.553125E-6	-48.569852
1.55317E-6	-48.557372
1.553215E-6	-48.535619
1.55326E-6	-48.551146
1.553305E-6	-48.551146
1.55335E-6	-48.535619
1.553395E-6	-48.513973
1.55344E-6	-48.520147
1.553485E-6	-48.529423
1.55353E-6	-48.554258
1.553575E-6	-48.569852
1.55362E-6	-48.585502
1.553665E-6	-48.557372
1.55371E-6	-48.588639
1.553755E-6	-48.591778
1.5538E-6	-48.591778
1.553845E-6	-48.591778
1.55389E-6	-48.569852
1.553935E-6	-48.557372
1.55398E-6	-48.541823
1.554025E-6	-48.53872
1.55407E-6	-48.53252
1.554115E-6	-48.53252
1.55416E-6	-48.520147
1.554205E-6	-48.51089
1.55425E-6	-48.50473
1.554295E-6	-48.53252
1.55434E-6	-48.554258
1.554385E-6	-48.548036
1.55443E-6	-48.551146
1.554475E-6	-48.554258
1.55452E-6	-48.563608
1.554565E-6	-48.569852
1.55461E-6	-48.576105
1.554655E-6	-48.582368
1.5547E-6	-48.566729
1.554745E-6	-48.557372
1.55479E-6	-48.520147
1.554835E-6	-48.520147
1.55488E-6	-48.51089
1.554925E-6	-48.513973
1.55497E-6	-48.507809
1.555015E-6	-48.517059
1.55506E-6	-48.51089
1.555105E-6	-48.507809
1.55515E-6	-48.526329
1.555195E-6	-48.526329
1.55524E-6	-48.541823
1.555285E-6	-48.53252
1.55533E-6	-48.563608
1.555375E-6	-48.566729
1.55542E-6	-48.557372
1.555465E-6	-48.560489
1.55551E-6	-48.544928
1.555555E-6	-48.541823
1.5556E-6	-48.541823
1.555645E-6	-48.51089
1.55569E-6	-48.53252
1.555735E-6	-48.507809
1.55578E-6	-48.51089
1.555825E-6	-48.520147
1.55587E-6	-48.526329
1.555915E-6	-48.529423
1.55596E-6	-48.53252
1.556005E-6	-48.544928
1.55605E-6	-48.557372
1.556095E-6	-48.572978
1.55614E-6	-48.579235
1.556185E-6	-48.579235
1.55623E-6	-48.557372
1.556275E-6	-48.557372
1.55632E-6	-48.566729
1.556365E-6	-48.572978
1.55641E-6	-48.548036
1.556455E-6	-48.535619
1.5565E-6	-48.520147
1.556545E-6	-48.517059
1.55659E-6	-48.529423
1.556635E-6	-48.535619
1.55668E-6	-48.541823
1.556725E-6	-48.53872
1.55677E-6	-48.544928
1.556815E-6	-48.563608
1.55686E-6	-48.576105
1.556905E-6	-48.59492
1.55695E-6	-48.616973
1.556995E-6	-48.607508
1.55704E-6	-48.598063
1.557085E-6	-48.613816
1.55713E-6	-48.616973
1.557175E-6	-48.620133
1.55722E-6	-48.607508
1.557265E-6	-48.582368
1.55731E-6	-48.554258
1.557355E-6	-48.576105
1.5574E-6	-48.579235
1.557445E-6	-48.598063
1.55749E-6	-48.598063
1.557535E-6	-48.563608
1.55758E-6	-48.601209
1.557625E-6	-48.629625
1.55767E-6	-48.655041
1.557715E-6	-48.693447
1.55776E-6	-48.680607
1.557805E-6	-48.680607
1.55785E-6	-48.680607
1.557895E-6	-48.690233
1.55794E-6	-48.696662
1.557985E-6	-48.693447
1.55803E-6	-48.664611
1.558075E-6	-48.648673
1.55812E-6	-48.632794
1.558165E-6	-48.642315
1.55821E-6	-48.661419
1.558255E-6	-48.674202
1.5583E-6	-48.680607
1.558345E-6	-48.680607
1.55839E-6	-48.683813
1.558435E-6	-48.725712
1.55848E-6	-48.754958
1.558525E-6	-48.78112
1.55857E-6	-48.761484
1.558615E-6	-48.78112
1.55866E-6	-48.78112
1.558705E-6	-48.800846
1.55875E-6	-48.830604
1.558795E-6	-48.807441
1.55884E-6	-48.794261
1.558885E-6	-48.771291
1.55893E-6	-48.76475
1.558975E-6	-48.790972
1.55902E-6	-48.814046
1.559065E-6	-48.804142
1.55911E-6	-48.807441
1.559155E-6	-48.814046
1.5592E-6	-48.860566
1.559245E-6	-48.887375
1.55929E-6	-48.910969
1.559335E-6	-48.924509
1.55938E-6	-48.924509
1.559425E-6	-48.941493
1.55947E-6	-48.965384
1.559515E-6	-48.968807
1.55956E-6	-48.982529
1.559605E-6	-48.975663
1.55965E-6	-48.968807
1.559695E-6	-48.941493
1.55974E-6	-48.944898
1.559785E-6	-48.989406
1.55983E-6	-49.006647
1.559875E-6	-48.985966
1.55992E-6	-48.992849
1.559965E-6	-49.010104
1.56001E-6	-49.041335
1.560055E-6	-49.08333
1.5601E-6	-49.111554
1.560145E-6	-49.115095
1.56019E-6	-49.125735
1.560235E-6	-49.136402
1.56028E-6	-49.157813
1.560325E-6	-49.175737
1.56037E-6	-49.179331
1.560415E-6	-49.175737
1.56046E-6	-49.161392
1.560505E-6	-49.168559
1.56055E-6	-49.19013
1.560595E-6	-49.197344
1.56064E-6	-49.211808
1.560685E-6	-49.208188
1.56073E-6	-49.208188
1.560775E-6	-49.240882
1.56082E-6	-49.270153
1.560865E-6	-49.314431
1.56091E-6	-49.333014
1.560955E-6	-49.333014
1.561E-6	-49.344203
1.561045E-6	-49.377942
1.56109E-6	-49.393022
1.561135E-6	-49.3968
1.56118E-6	-49.419538
1.561225E-6	-49.404366
1.56127E-6	-49.419538
1.561315E-6	-49.419538
1.56136E-6	-49.430951
1.561405E-6	-49.442395
1.56145E-6	-49.453869
1.561495E-6	-49.469216
1.56154E-6	-49.484616
1.561585E-6	-49.527251
1.56163E-6	-49.538952
1.561675E-6	-49.562449
1.56172E-6	-49.586073
1.561765E-6	-49.613798
1.56181E-6	-49.621752
1.561855E-6	-49.649707
1.5619E-6	-49.665762
1.561945E-6	-49.685915
1.56199E-6	-49.681877
1.562035E-6	-49.685915
1.56208E-6	-49.689957
1.562125E-6	-49.702105
1.56217E-6	-49.698052
1.562215E-6	-49.710223
1.56226E-6	-49.698052
1.562305E-6	-49.734667
1.56235E-6	-49.767475
1.562395E-6	-49.788107
1.56244E-6	-49.792245
1.562485E-6	-49.829667
1.56253E-6	-49.854795
1.562575E-6	-49.884296
1.56262E-6	-49.909743
1.562665E-6	-49.948195
1.56271E-6	-49.93534
1.562755E-6	-49.948195
1.5628E-6	-49.961088
1.562845E-6	-49.965395
1.56289E-6	-49.97402
1.562935E-6	-50.002607
1.56298E-6	-49.991323
1.563025E-6	-50.012177
1.56307E-6	-50.016535
1.563115E-6	-50.036197
1.56316E-6	-50.066079
1.563205E-6	-50.080655
1.56325E-6	-50.105057
1.563295E-6	-50.134522
1.56334E-6	-50.189066
1.563385E-6	-50.179098
1.56343E-6	-50.219108
1.563475E-6	-50.259491
1.56352E-6	-50.260874
1.563565E-6	-50.27612
1.56361E-6	-50.296531
1.563655E-6	-50.301184
1.5637E-6	-50.317039
1.563745E-6	-50.322181
1.56379E-6	-50.296531
1.563835E-6	-50.332483
1.56388E-6	-50.338583
1.563925E-6	-50.364955
1.56397E-6	-50.385789
1.564015E-6	-50.422491
1.56406E-6	-50.417229
1.564105E-6	-50.464819
1.56415E-6	-50.518806
1.564195E-6	-50.534986
1.56424E-6	-50.556654
1.564285E-6	-50.579919
1.56433E-6	-50.58588
1.564375E-6	-50.58588
1.56442E-6	-50.623818
1.564465E-6	-50.639389
1.56451E-6	-50.661585
1.564555E-6	-50.650473
1.5646E-6	-50.644927
1.564645E-6	-50.672726
1.56469E-6	-50.683896
1.564735E-6	-50.711946
1.56478E-6	-50.745848
1.564825E-6	-50.75204
1.56487E-6	-50.763416
1.564915E-6	-50.803467
1.56496E-6	-50.861332
1.565005E-6	-50.902835
1.56505E-6	-50.926424
1.565095E-6	-50.924812
1.56514E-6	-50.965844
1.565185E-6	-50.954467
1.56523E-6	-51.008364
1.565275E-6	-51.032534
1.56532E-6	-51.032534
1.565365E-6	-51.019883
1.56541E-6	-51.019883
1.565455E-6	-51.044117
1.5655E-6	-51.056839
1.565545E-6	-51.105862
1.56559E-6	-51.105862
1.565635E-6	-51.118205
1.56568E-6	-51.130583
1.565725E-6	-51.178171
1.56577E-6	-51.222257
1.565815E-6	-51.267375
1.56586E-6	-51.286022
1.565905E-6	-51.293035
1.56595E-6	-51.318848
1.565995E-6	-51.325325
1.56604E-6	-51.364392
1.566085E-6	-51.377493
1.56613E-6	-51.377493
1.566175E-6	-51.384059
1.56622E-6	-51.390634
1.566265E-6	-51.403814
1.56631E-6	-51.410419
1.566355E-6	-51.45694
1.5664E-6	-51.470323
1.566445E-6	-51.484359
1.56649E-6	-51.503963
1.566535E-6	-51.531065
1.56658E-6	-51.58578
1.566625E-6	-51.627905
1.56667E-6	-51.648169
1.566715E-6	-51.648169
1.56676E-6	-51.683861
1.566805E-6	-51.704389
1.56685E-6	-51.704389
1.566895E-6	-51.754837
1.56694E-6	-51.743792
1.566985E-6	-51.750935
1.56703E-6	-51.728893
1.567075E-6	-51.743792
1.56712E-6	-51.78683
1.567165E-6	-51.823024
1.56721E-6	-51.837587
1.567255E-6	-51.866859
1.5673E-6	-51.866859
1.567345E-6	-51.89633
1.56739E-6	-51.986649
1.567435E-6	-52.020404
1.56748E-6	-52.020404
1.567525E-6	-52.058606
1.56757E-6	-52.097148
1.567615E-6	-52.120439
1.56766E-6	-52.167398
1.567705E-6	-52.191788
1.56775E-6	-52.223557
1.567795E-6	-52.223557
1.56784E-6	-52.239529
1.567885E-6	-52.279718
1.56793E-6	-52.312879
1.567975E-6	-52.357491
1.56802E-6	-52.398792
1.568065E-6	-52.449641
1.56811E-6	-52.491832
1.568155E-6	-52.586908
1.5682E-6	-52.595584
1.568245E-6	-52.66562
1.56829E-6	-52.718898
1.568335E-6	-52.782718
1.56838E-6	-52.855864
1.568425E-6	-52.917491
1.56847E-6	-52.997291
1.568515E-6	-53.047811
1.56856E-6	-53.09361
1.568605E-6	-53.174939
1.56865E-6	-53.239469
1.568695E-6	-53.284569
1.56874E-6	-53.368647
1.568785E-6	-53.439018
1.56883E-6	-53.494011
1.568875E-6	-53.560541
1.56892E-6	-53.651199
1.568965E-6	-53.717133
1.56901E-6	-53.80385
1.569055E-6	-53.879583
1.5691E-6	-53.937261
1.569145E-6	-54.026339
1.56919E-6	-54.087127
1.569235E-6	-54.173686
1.56928E-6	-54.22968
1.569325E-6	-54.310946
1.56937E-6	-54.361631
1.569415E-6	-54.417716
1.56946E-6	-54.466025
1.569505E-6	-54.55932
1.56955E-6	-54.61175
1.569595E-6	-54.647059
1.56964E-6	-54.687766
1.569685E-6	-54.759936
1.56973E-6	-54.829361
1.569775E-6	-54.878495
1.56982E-6	-54.92819
1.569865E-6	-54.962093
1.56991E-6	-55.027938
1.569955E-6	-55.076587
1.57E-6	-55.152732
