Wavelength (nm)	Power (dBm)
1.525E-6	-48.167302
1.525045E-6	-48.065971
1.52509E-6	-47.9588
1.525135E-6	-47.856861
1.52518E-6	-47.746907
1.525225E-6	-47.629592
1.52527E-6	-47.537477
1.525315E-6	-47.428016
1.52536E-6	-47.337683
1.525405E-6	-47.244583
1.52545E-6	-47.135435
1.525495E-6	-47.039933
1.52554E-6	-46.937895
1.525585E-6	-46.850799
1.52563E-6	-46.759234
1.525675E-6	-46.661499
1.52572E-6	-46.575773
1.525765E-6	-46.474316
1.52581E-6	-46.395959
1.525855E-6	-46.326441
1.5259E-6	-46.26904
1.525945E-6	-46.187044
1.52599E-6	-46.11366
1.526035E-6	-46.050233
1.52608E-6	-45.961934
1.526125E-6	-45.892228
1.52617E-6	-45.830268
1.526215E-6	-45.73977
1.52626E-6	-45.652715
1.526305E-6	-45.568935
1.52635E-6	-45.505216
1.526395E-6	-45.44546
1.52644E-6	-45.349147
1.526485E-6	-45.290018
1.52653E-6	-45.230235
1.526575E-6	-45.168408
1.52662E-6	-45.106041
1.526665E-6	-45.05289
1.52671E-6	-45.019653
1.526755E-6	-44.986668
1.5268E-6	-44.921441
1.526845E-6	-44.89321
1.52689E-6	-44.813545
1.526935E-6	-44.765137
1.52698E-6	-44.709548
1.527025E-6	-44.652126
1.52707E-6	-44.58296
1.527115E-6	-44.518564
1.52716E-6	-44.48428
1.527205E-6	-44.42132
1.52725E-6	-44.364003
1.527295E-6	-44.339162
1.52734E-6	-44.30392
1.527385E-6	-44.271284
1.52743E-6	-44.236586
1.527475E-6	-44.246967
1.52752E-6	-44.22853
1.527565E-6	-44.205594
1.52761E-6	-44.166878
1.527655E-6	-44.13863
1.5277E-6	-44.115042
1.527745E-6	-44.060497
1.52779E-6	-44.043936
1.527835E-6	-44.014283
1.52788E-6	-43.9545
1.527925E-6	-43.928668
1.52797E-6	-43.885954
1.528015E-6	-43.865811
1.52806E-6	-43.849974
1.528105E-6	-43.837346
1.52815E-6	-43.809067
1.528195E-6	-43.815335
1.52824E-6	-43.819519
1.528285E-6	-43.838397
1.52833E-6	-43.859469
1.528375E-6	-43.860525
1.52842E-6	-43.839448
1.528465E-6	-43.819519
1.52851E-6	-43.800723
1.528555E-6	-43.805936
1.5286E-6	-43.775787
1.528645E-6	-43.749964
1.52869E-6	-43.732491
1.528735E-6	-43.684548
1.52878E-6	-43.681505
1.528825E-6	-43.685562
1.52887E-6	-43.696738
1.528915E-6	-43.703866
1.52896E-6	-43.688607
1.529005E-6	-43.694704
1.52905E-6	-43.752024
1.529095E-6	-43.787198
1.52914E-6	-43.796557
1.529185E-6	-43.775787
1.52923E-6	-43.779933
1.529275E-6	-43.785121
1.52932E-6	-43.790316
1.529365E-6	-43.785121
1.52941E-6	-43.752024
1.529455E-6	-43.714067
1.5295E-6	-43.685562
1.529545E-6	-43.684548
1.52959E-6	-43.706924
1.529635E-6	-43.709984
1.52968E-6	-43.709984
1.529725E-6	-43.706924
1.52977E-6	-43.73044
1.529815E-6	-43.792395
1.52986E-6	-43.832095
1.529905E-6	-43.842603
1.52995E-6	-43.855246
1.529995E-6	-43.821613
1.53004E-6	-43.859469
1.530085E-6	-43.849974
1.53013E-6	-43.855246
1.530175E-6	-43.847867
1.53022E-6	-43.792395
1.530265E-6	-43.782008
1.53031E-6	-43.757179
1.530355E-6	-43.795516
1.5304E-6	-43.789276
1.530445E-6	-43.806979
1.53049E-6	-43.80385
1.530535E-6	-43.832095
1.53058E-6	-43.888079
1.530625E-6	-43.924378
1.53067E-6	-43.965308
1.530715E-6	-43.937261
1.53076E-6	-43.942641
1.530805E-6	-43.95882
1.53085E-6	-43.971807
1.530895E-6	-43.987007
1.53094E-6	-43.966391
1.530985E-6	-43.91688
1.53103E-6	-43.895528
1.531075E-6	-43.89979
1.53112E-6	-43.91474
1.531165E-6	-43.920091
1.53121E-6	-43.91795
1.531255E-6	-43.927595
1.5313E-6	-43.941565
1.531345E-6	-43.992449
1.53139E-6	-44.041732
1.531435E-6	-44.071573
1.53148E-6	-44.084902
1.531525E-6	-44.08824
1.53157E-6	-44.104972
1.531615E-6	-44.104972
1.53166E-6	-44.121768
1.531705E-6	-44.096041
1.53175E-6	-44.097156
1.531795E-6	-44.043936
1.53184E-6	-44.050553
1.531885E-6	-44.05497
1.53193E-6	-44.079343
1.531975E-6	-44.071573
1.53202E-6	-44.093811
1.532065E-6	-44.10609
1.53211E-6	-44.137504
1.532155E-6	-44.198737
1.5322E-6	-44.246967
1.532245E-6	-44.267802
1.53229E-6	-44.259687
1.532335E-6	-44.264322
1.53238E-6	-44.31329
1.532425E-6	-44.320331
1.53247E-6	-44.317983
1.532515E-6	-44.285241
1.53256E-6	-44.248122
1.532605E-6	-44.237739
1.53265E-6	-44.265482
1.532695E-6	-44.281748
1.53274E-6	-44.265482
1.532785E-6	-44.280584
1.53283E-6	-44.315636
1.532875E-6	-44.365189
1.53292E-6	-44.404524
1.532965E-6	-44.449056
1.53301E-6	-44.470885
1.533055E-6	-44.492826
1.5331E-6	-44.503838
1.533145E-6	-44.530874
1.53319E-6	-44.554359
1.533235E-6	-44.548166
1.53328E-6	-44.538276
1.533325E-6	-44.538276
1.53337E-6	-44.513649
1.533415E-6	-44.518564
1.53346E-6	-44.539511
1.533505E-6	-44.537042
1.53355E-6	-44.545692
1.533595E-6	-44.576726
1.53364E-6	-44.616777
1.533685E-6	-44.654662
1.53373E-6	-44.704413
1.533775E-6	-44.7379
1.53382E-6	-44.77295
1.533865E-6	-44.80172
1.53391E-6	-44.818811
1.533955E-6	-44.839938
1.534E-6	-44.842586
1.534045E-6	-44.830682
1.53409E-6	-44.835969
1.534135E-6	-44.816177
1.53418E-6	-44.822764
1.534225E-6	-44.817493
1.53427E-6	-44.800408
1.534315E-6	-44.846561
1.53436E-6	-44.878495
1.534405E-6	-44.88384
1.53445E-6	-44.90932
1.534495E-6	-44.970269
1.53454E-6	-45.001755
1.534585E-6	-45.032087
1.53463E-6	-45.087784
1.534675E-6	-45.111674
1.53472E-6	-45.113083
1.534765E-6	-45.114493
1.53481E-6	-45.128616
1.534855E-6	-45.128616
1.5349E-6	-45.122961
1.534945E-6	-45.087784
1.53499E-6	-45.089186
1.535035E-6	-45.082182
1.53508E-6	-45.101821
1.535125E-6	-45.130031
1.53517E-6	-45.16698
1.535215E-6	-45.189876
1.53526E-6	-45.212892
1.535305E-6	-45.276825
1.53535E-6	-45.304725
1.535395E-6	-45.332806
1.53544E-6	-45.349147
1.535485E-6	-45.352125
1.53553E-6	-45.338741
1.535575E-6	-45.398542
1.53562E-6	-45.367044
1.535665E-6	-45.359578
1.53571E-6	-45.326879
1.535755E-6	-45.320961
1.5358E-6	-45.323919
1.535845E-6	-45.318004
1.53589E-6	-45.353614
1.535935E-6	-45.382014
1.53598E-6	-45.353614
1.536025E-6	-45.398542
1.53607E-6	-45.425723
1.536115E-6	-45.468346
1.53616E-6	-45.49443
1.536205E-6	-45.50059
1.53625E-6	-45.511392
1.536295E-6	-45.502132
1.53634E-6	-45.517576
1.536385E-6	-45.539291
1.53643E-6	-45.533075
1.536475E-6	-45.499049
1.53652E-6	-45.469876
1.536565E-6	-45.43634
1.53661E-6	-45.451551
1.536655E-6	-45.456125
1.5367E-6	-45.468346
1.536745E-6	-45.479068
1.53679E-6	-45.482136
1.536835E-6	-45.50059
1.53688E-6	-45.554868
1.536925E-6	-45.58462
1.53697E-6	-45.598784
1.537015E-6	-45.603516
1.53706E-6	-45.58462
1.537105E-6	-45.595632
1.53715E-6	-45.622494
1.537195E-6	-45.597208
1.53724E-6	-45.583049
1.537285E-6	-45.526869
1.53733E-6	-45.511392
1.537375E-6	-45.511392
1.53742E-6	-45.520671
1.537465E-6	-45.499049
1.53751E-6	-45.506759
1.537555E-6	-45.516029
1.5376E-6	-45.52222
1.537645E-6	-45.578339
1.53769E-6	-45.619325
1.537735E-6	-45.625666
1.53778E-6	-45.612995
1.537825E-6	-45.609833
1.53787E-6	-45.612995
1.537915E-6	-45.605094
1.53796E-6	-45.612995
1.538005E-6	-45.616159
1.53805E-6	-45.564241
1.538095E-6	-45.525319
1.53814E-6	-45.511392
1.538185E-6	-45.523769
1.53823E-6	-45.503673
1.538275E-6	-45.497509
1.53832E-6	-45.505216
1.538365E-6	-45.502132
1.53841E-6	-45.551748
1.538455E-6	-45.603516
1.5385E-6	-45.611413
1.538545E-6	-45.594057
1.53859E-6	-45.612995
1.538635E-6	-45.598784
1.53868E-6	-45.616159
1.538725E-6	-45.612995
1.53877E-6	-45.590909
1.538815E-6	-45.554868
1.53886E-6	-45.519123
1.538905E-6	-45.491353
1.53895E-6	-45.482136
1.538995E-6	-45.49443
1.53904E-6	-45.486742
1.539085E-6	-45.485206
1.53913E-6	-45.472938
1.539175E-6	-45.488278
1.53922E-6	-45.575202
1.539265E-6	-45.56737
1.53931E-6	-45.587763
1.539355E-6	-45.583049
1.5394E-6	-45.57677
1.539445E-6	-45.589336
1.53949E-6	-45.581478
1.539535E-6	-45.572068
1.53958E-6	-45.551748
1.539625E-6	-45.520671
1.53967E-6	-45.469876
1.539715E-6	-45.482136
1.53976E-6	-45.491353
1.539805E-6	-45.462231
1.53985E-6	-45.460704
1.539895E-6	-45.460704
1.53994E-6	-45.469876
1.539985E-6	-45.489815
1.54003E-6	-45.54863
1.540075E-6	-45.56737
1.54012E-6	-45.565805
1.540165E-6	-45.565805
1.54021E-6	-45.573635
1.540255E-6	-45.575202
1.5403E-6	-45.55799
1.540345E-6	-45.533075
1.54039E-6	-45.505216
1.540435E-6	-45.477534
1.54048E-6	-45.462231
1.540525E-6	-45.448505
1.54057E-6	-45.434821
1.540615E-6	-45.419668
1.54066E-6	-45.437858
1.540705E-6	-45.428754
1.54075E-6	-45.460704
1.540795E-6	-45.50059
1.54084E-6	-45.514483
1.540885E-6	-45.516029
1.54093E-6	-45.547072
1.540975E-6	-45.568935
1.54102E-6	-45.556429
1.541065E-6	-45.534628
1.54111E-6	-45.520671
1.541155E-6	-45.497509
1.5412E-6	-45.471407
1.541245E-6	-45.448505
1.54129E-6	-45.418156
1.541335E-6	-45.386516
1.54138E-6	-45.394028
1.541425E-6	-45.394028
1.54147E-6	-45.386516
1.541515E-6	-45.421181
1.54156E-6	-45.421181
1.541605E-6	-45.4546
1.54165E-6	-45.505216
1.541695E-6	-45.492891
1.54174E-6	-45.529971
1.541785E-6	-45.531523
1.54183E-6	-45.519123
1.541875E-6	-45.509847
1.54192E-6	-45.497509
1.541965E-6	-45.472938
1.54201E-6	-45.434821
1.542055E-6	-45.395532
1.5421E-6	-45.374523
1.542145E-6	-45.355105
1.54219E-6	-45.36107
1.542235E-6	-45.374523
1.54228E-6	-45.374523
1.542325E-6	-45.395532
1.54237E-6	-45.406075
1.542415E-6	-45.456125
1.54246E-6	-45.477534
1.542505E-6	-45.50059
1.54255E-6	-45.511392
1.542595E-6	-45.499049
1.54264E-6	-45.497509
1.542685E-6	-45.483671
1.54273E-6	-45.468346
1.542775E-6	-45.4546
1.54282E-6	-45.395532
1.542865E-6	-45.373026
1.54291E-6	-45.367044
1.542955E-6	-45.374523
1.543E-6	-45.37602
1.543045E-6	-45.367044
1.54309E-6	-45.364056
1.543135E-6	-45.37602
1.54318E-6	-45.419668
1.543225E-6	-45.483671
1.54327E-6	-45.499049
1.543315E-6	-45.531523
1.54336E-6	-45.491353
1.543405E-6	-45.505216
1.54345E-6	-45.486742
1.543495E-6	-45.516029
1.54354E-6	-45.512937
1.543585E-6	-45.443939
1.54363E-6	-45.391022
1.543675E-6	-45.377518
1.54372E-6	-45.388017
1.543765E-6	-45.401554
1.54381E-6	-45.37602
1.543855E-6	-45.388017
1.5439E-6	-45.391022
1.543945E-6	-45.416644
1.54399E-6	-45.472938
1.544035E-6	-45.517576
1.54408E-6	-45.537736
1.544125E-6	-45.542402
1.54417E-6	-45.551748
1.544215E-6	-45.539291
1.54426E-6	-45.542402
1.544305E-6	-45.55799
1.54435E-6	-45.512937
1.544395E-6	-45.456125
1.54444E-6	-45.422695
1.544485E-6	-45.424209
1.54453E-6	-45.43027
1.544575E-6	-45.446982
1.54462E-6	-45.431787
1.544665E-6	-45.422695
1.54471E-6	-45.442418
1.544755E-6	-45.49443
1.5448E-6	-45.554868
1.544845E-6	-45.568935
1.54489E-6	-45.600361
1.544935E-6	-45.568935
1.54498E-6	-45.565805
1.545025E-6	-45.55799
1.54507E-6	-45.418156
1.545115E-6	-42.722961
1.54516E-6	-33.829997
1.545205E-6	-28.344589
1.54525E-6	-25.973948
1.545295E-6	-25.404567
1.54534E-6	-25.32836
1.545385E-6	-25.346171
1.54543E-6	-25.329842
1.545475E-6	-25.676722
1.54552E-6	-27.554755
1.545565E-6	-32.087305
1.54561E-6	-39.738755
1.545655E-6	-44.72499
1.5457E-6	-45.459177
1.545745E-6	-45.595632
1.54579E-6	-45.630427
1.545835E-6	-45.643149
1.54588E-6	-45.655908
1.545925E-6	-45.619325
1.54597E-6	-45.573635
1.546015E-6	-45.529971
1.54606E-6	-45.523769
1.546105E-6	-45.534628
1.54615E-6	-45.52842
1.546195E-6	-45.536182
1.54624E-6	-45.523769
1.546285E-6	-45.531523
1.54633E-6	-45.570501
1.546375E-6	-45.636783
1.54642E-6	-45.668705
1.546465E-6	-45.684754
1.54651E-6	-45.691191
1.546555E-6	-45.704092
1.5466E-6	-45.692801
1.546645E-6	-45.713793
1.54669E-6	-45.707323
1.546735E-6	-45.662302
1.54678E-6	-45.62408
1.546825E-6	-45.58462
1.54687E-6	-45.575202
1.546915E-6	-45.57677
1.54696E-6	-45.575202
1.547005E-6	-45.57677
1.54705E-6	-45.587763
1.547095E-6	-45.595632
1.54714E-6	-45.643149
1.547185E-6	-45.689581
1.54723E-6	-45.728386
1.547275E-6	-45.731635
1.54732E-6	-45.73001
1.547365E-6	-45.743028
1.54741E-6	-45.752817
1.547455E-6	-45.744658
1.5475E-6	-45.731635
1.547545E-6	-45.704092
1.54759E-6	-45.647929
1.547635E-6	-45.641556
1.54768E-6	-45.625666
1.547725E-6	-45.617742
1.54777E-6	-45.616159
1.547815E-6	-45.630427
1.54786E-6	-45.632015
1.547905E-6	-45.646335
1.54795E-6	-45.694412
1.547995E-6	-45.73977
1.54804E-6	-45.760991
1.548085E-6	-45.779028
1.54813E-6	-45.785606
1.548175E-6	-45.797141
1.54822E-6	-45.797141
1.548265E-6	-45.785606
1.54831E-6	-45.774102
1.548355E-6	-45.736514
1.5484E-6	-45.692801
1.548445E-6	-45.673513
1.54849E-6	-45.657505
1.548535E-6	-45.655908
1.54858E-6	-45.647929
1.548625E-6	-45.660702
1.54867E-6	-45.676722
1.548715E-6	-45.683147
1.54876E-6	-45.726762
1.548805E-6	-45.775743
1.54885E-6	-45.793842
1.548895E-6	-45.813673
1.54894E-6	-45.816987
1.548985E-6	-45.826944
1.54903E-6	-45.816987
1.549075E-6	-45.810362
1.54912E-6	-45.787252
1.549165E-6	-45.747919
1.54921E-6	-45.705707
1.549255E-6	-45.675117
1.5493E-6	-45.660702
1.549345E-6	-45.649524
1.54939E-6	-45.67191
1.549435E-6	-45.670307
1.54948E-6	-45.686362
1.549525E-6	-45.715412
1.54957E-6	-45.73977
1.549615E-6	-45.808707
1.54966E-6	-45.823623
1.549705E-6	-45.835259
1.54975E-6	-45.828606
1.549795E-6	-45.810362
1.54984E-6	-45.749551
1.549885E-6	-45.377518
1.54993E-6	-39.251836
1.549975E-6	-30.383417
1.55002E-6	-26.583677
1.550065E-6	-25.319482
1.55011E-6	-25.131446
1.550155E-6	-25.05011
1.5502E-6	-25.023794
1.550245E-6	-25.084982
1.55029E-6	-25.793842
1.550335E-6	-28.598063
1.55038E-6	-34.745664
1.550425E-6	-42.705112
1.55047E-6	-45.332806
1.550515E-6	-45.726762
1.55056E-6	-45.787252
1.550605E-6	-45.802094
1.55065E-6	-45.800443
1.550695E-6	-45.805399
1.55074E-6	-45.785606
1.550785E-6	-45.717032
1.55083E-6	-45.660702
1.550875E-6	-45.643149
1.55092E-6	-45.655908
1.550965E-6	-45.643149
1.55101E-6	-45.649524
1.551055E-6	-45.655908
1.5511E-6	-45.649524
1.551145E-6	-45.676722
1.55119E-6	-45.744658
1.551235E-6	-45.790546
1.55128E-6	-45.813673
1.551325E-6	-45.816987
1.55137E-6	-45.797141
1.551415E-6	-45.790546
1.55146E-6	-45.793842
1.551505E-6	-45.793842
1.55155E-6	-45.747919
1.551595E-6	-45.687971
1.55164E-6	-45.635193
1.551685E-6	-45.630427
1.55173E-6	-45.633604
1.551775E-6	-45.641556
1.55182E-6	-45.632015
1.551865E-6	-45.62091
1.55191E-6	-45.62408
1.551955E-6	-45.689581
1.552E-6	-45.751184
1.552045E-6	-45.793842
1.55209E-6	-45.793842
1.552135E-6	-45.780672
1.55218E-6	-45.783961
1.552225E-6	-45.787252
1.55227E-6	-45.790546
1.552315E-6	-45.774102
1.55236E-6	-45.725139
1.552405E-6	-45.636783
1.55245E-6	-45.605094
1.552495E-6	-45.598784
1.55254E-6	-45.608253
1.552585E-6	-45.612995
1.55263E-6	-45.600361
1.552675E-6	-45.587763
1.55272E-6	-45.617742
1.552765E-6	-45.673513
1.55281E-6	-45.733261
1.552855E-6	-45.767541
1.5529E-6	-45.767541
1.552945E-6	-45.757719
1.55299E-6	-45.775743
1.553035E-6	-45.765903
1.55308E-6	-45.775743
1.553125E-6	-45.751184
1.55317E-6	-45.679933
1.553215E-6	-45.611413
1.55326E-6	-45.590909
1.553305E-6	-45.594057
1.55335E-6	-45.594057
1.553395E-6	-45.589336
1.55344E-6	-45.578339
1.553485E-6	-45.586191
1.55353E-6	-45.616159
1.553575E-6	-45.686362
1.55362E-6	-45.741399
1.553665E-6	-45.75445
1.55371E-6	-45.746288
1.553755E-6	-45.757719
1.5538E-6	-45.756084
1.553845E-6	-45.767541
1.55389E-6	-45.765903
1.553935E-6	-45.725139
1.55398E-6	-45.657505
1.554025E-6	-45.603516
1.55407E-6	-45.583049
1.554115E-6	-45.573635
1.55416E-6	-45.572068
1.554205E-6	-45.55799
1.55425E-6	-45.553308
1.554295E-6	-45.562678
1.55434E-6	-45.609833
1.554385E-6	-45.665502
1.55443E-6	-45.728386
1.554475E-6	-45.746288
1.55452E-6	-45.734887
1.554565E-6	-45.762628
1.55461E-6	-45.757719
1.554655E-6	-45.76918
1.5547E-6	-45.752817
1.554745E-6	-45.707323
1.55479E-6	-45.638374
1.554835E-6	-45.594057
1.55488E-6	-45.579908
1.554925E-6	-45.562678
1.55497E-6	-45.545515
1.555015E-6	-45.543958
1.55506E-6	-45.550189
1.555105E-6	-45.565805
1.55515E-6	-45.594057
1.555195E-6	-45.662302
1.55524E-6	-45.70894
1.555285E-6	-45.728386
1.55533E-6	-45.731635
1.555375E-6	-45.752817
1.55542E-6	-45.749551
1.555465E-6	-45.738142
1.55551E-6	-45.736514
1.555555E-6	-45.702477
1.5556E-6	-45.635193
1.555645E-6	-45.57677
1.55569E-6	-45.559552
1.555735E-6	-45.545515
1.55578E-6	-45.547072
1.555825E-6	-45.537736
1.55587E-6	-45.547072
1.555915E-6	-45.559552
1.55596E-6	-45.605094
1.556005E-6	-45.657505
1.55605E-6	-45.70894
1.556095E-6	-45.721894
1.55614E-6	-45.741399
1.556185E-6	-45.747919
1.55623E-6	-45.749551
1.556275E-6	-45.741399
1.55632E-6	-45.725139
1.556365E-6	-45.697636
1.55641E-6	-45.638374
1.556455E-6	-45.586191
1.5565E-6	-45.573635
1.556545E-6	-45.550189
1.55659E-6	-45.540846
1.556635E-6	-45.550189
1.55668E-6	-45.55799
1.556725E-6	-45.55799
1.55677E-6	-45.601938
1.556815E-6	-45.67191
1.55686E-6	-45.725139
1.556905E-6	-45.756084
1.55695E-6	-45.760991
1.556995E-6	-45.77082
1.55704E-6	-45.75445
1.557085E-6	-45.75445
1.55713E-6	-45.756084
1.557175E-6	-45.723516
1.55722E-6	-45.654311
1.557265E-6	-45.598784
1.55731E-6	-45.565805
1.557355E-6	-45.575202
1.5574E-6	-45.568935
1.557445E-6	-45.573635
1.55749E-6	-45.592483
1.557535E-6	-45.586191
1.55758E-6	-45.619325
1.557625E-6	-45.694412
1.55767E-6	-45.767541
1.557715E-6	-45.792194
1.55776E-6	-45.800443
1.557805E-6	-45.793842
1.55785E-6	-45.793842
1.557895E-6	-45.798792
1.55794E-6	-45.793842
1.557985E-6	-45.764265
1.55803E-6	-45.696024
1.558075E-6	-45.639965
1.55812E-6	-45.606673
1.558165E-6	-45.611413
1.55821E-6	-45.619325
1.558255E-6	-45.635193
1.5583E-6	-45.635193
1.558345E-6	-45.649524
1.55839E-6	-45.668705
1.558435E-6	-45.756084
1.55848E-6	-45.830268
1.558525E-6	-45.858626
1.55857E-6	-45.868679
1.558615E-6	-45.8603
1.55866E-6	-45.858626
1.558705E-6	-45.861975
1.55875E-6	-45.855281
1.558795E-6	-45.831931
1.55884E-6	-45.765903
1.558885E-6	-45.70894
1.55893E-6	-45.691191
1.558975E-6	-45.697636
1.55902E-6	-45.704092
1.559065E-6	-45.721894
1.55911E-6	-45.726762
1.559155E-6	-45.728386
1.5592E-6	-45.76918
1.559245E-6	-45.851937
1.55929E-6	-45.926091
1.559335E-6	-45.949953
1.55938E-6	-45.953373
1.559425E-6	-45.938006
1.55947E-6	-45.96022
1.559515E-6	-45.972229
1.55956E-6	-45.984272
1.559605E-6	-45.941416
1.55965E-6	-45.875395
1.559695E-6	-45.81533
1.55974E-6	-45.793842
1.559785E-6	-45.818645
1.55983E-6	-45.821963
1.559875E-6	-45.826944
1.55992E-6	-45.826944
1.559965E-6	-45.833595
1.56001E-6	-45.890541
1.560055E-6	-45.975667
1.5601E-6	-46.043242
1.560145E-6	-46.053732
1.56019E-6	-46.055483
1.560235E-6	-46.057235
1.56028E-6	-46.078309
1.560325E-6	-46.081831
1.56037E-6	-46.097716
1.560415E-6	-46.064248
1.56046E-6	-45.984272
1.560505E-6	-45.936302
1.56055E-6	-45.932895
1.560595E-6	-45.934598
1.56064E-6	-45.949953
1.560685E-6	-45.939711
1.56073E-6	-45.946536
1.560775E-6	-45.96022
1.56082E-6	-46.017127
1.560865E-6	-46.094181
1.56091E-6	-46.140364
1.560955E-6	-46.174427
1.561E-6	-46.156466
1.561045E-6	-46.183435
1.56109E-6	-46.197888
1.561135E-6	-46.210573
1.56118E-6	-46.206945
1.561225E-6	-46.172627
1.56127E-6	-46.11366
1.561315E-6	-46.071273
1.56136E-6	-46.07303
1.561405E-6	-46.081831
1.56145E-6	-46.078309
1.561495E-6	-46.088884
1.56154E-6	-46.092415
1.561585E-6	-46.110112
1.56163E-6	-46.149302
1.561675E-6	-46.217839
1.56172E-6	-46.267201
1.561765E-6	-46.29117
1.56181E-6	-46.298572
1.561855E-6	-46.307841
1.5619E-6	-46.315272
1.561945E-6	-46.33017
1.56199E-6	-46.326441
1.562035E-6	-46.293019
1.56208E-6	-46.259853
1.562125E-6	-46.214204
1.56217E-6	-46.197888
1.562215E-6	-46.205132
1.56226E-6	-46.197888
1.562305E-6	-46.20332
1.56235E-6	-46.214204
1.562395E-6	-46.223296
1.56244E-6	-46.27088
1.562485E-6	-46.33017
1.56253E-6	-46.371407
1.562575E-6	-46.3865
1.56262E-6	-46.416844
1.562665E-6	-46.434006
1.56271E-6	-46.445485
1.562755E-6	-46.447401
1.5628E-6	-46.445485
1.562845E-6	-46.420652
1.56289E-6	-46.3865
1.562935E-6	-46.35074
1.56298E-6	-46.33017
1.563025E-6	-46.326441
1.56307E-6	-46.326441
1.563115E-6	-46.326441
1.56316E-6	-46.341378
1.563205E-6	-46.362001
1.56325E-6	-46.394066
1.563295E-6	-46.439741
1.56334E-6	-46.501399
1.563385E-6	-46.522798
1.56343E-6	-46.534514
1.563475E-6	-46.552149
1.56352E-6	-46.563945
1.563565E-6	-46.552149
1.56361E-6	-46.556077
1.563655E-6	-46.550186
1.5637E-6	-46.516951
1.563745E-6	-46.487837
1.56379E-6	-46.462761
1.563835E-6	-46.460838
1.56388E-6	-46.458916
1.563925E-6	-46.468535
1.56397E-6	-46.491707
1.564015E-6	-46.49752
1.56406E-6	-46.518899
1.564105E-6	-46.561977
1.56415E-6	-46.595559
1.564195E-6	-46.647427
1.56424E-6	-46.667543
1.564285E-6	-46.679657
1.56433E-6	-46.695862
1.564375E-6	-46.689778
1.56442E-6	-46.673596
1.564465E-6	-46.679657
1.56451E-6	-46.671577
1.564555E-6	-46.631402
1.5646E-6	-46.599527
1.564645E-6	-46.603498
1.56469E-6	-46.603498
1.564735E-6	-46.623411
1.56478E-6	-46.639407
1.564825E-6	-46.647427
1.56487E-6	-46.651443
1.564915E-6	-46.697892
1.56496E-6	-46.742791
1.565005E-6	-46.792308
1.56505E-6	-46.819367
1.565095E-6	-46.834007
1.56514E-6	-46.831912
1.565185E-6	-46.829819
1.56523E-6	-46.857113
1.565275E-6	-46.85922
1.56532E-6	-46.836102
1.565365E-6	-46.804776
1.56541E-6	-46.786087
1.565455E-6	-46.777807
1.5655E-6	-46.784016
1.565545E-6	-46.804776
1.56559E-6	-46.806857
1.565635E-6	-46.829819
1.56568E-6	-46.831912
1.565725E-6	-46.865546
1.56577E-6	-46.92504
1.565815E-6	-46.96372
1.56586E-6	-46.987529
1.565905E-6	-46.991872
1.56595E-6	-46.9897
1.565995E-6	-46.987529
1.56604E-6	-47.011469
1.566085E-6	-47.011469
1.56613E-6	-47.015836
1.566175E-6	-46.959405
1.56622E-6	-46.92932
1.566265E-6	-46.92718
1.56631E-6	-46.933606
1.566355E-6	-46.972363
1.5664E-6	-46.981023
1.566445E-6	-46.976691
1.56649E-6	-46.987529
1.566535E-6	-47.020208
1.56658E-6	-47.066374
1.566625E-6	-47.119745
1.56667E-6	-47.135435
1.566715E-6	-47.135435
1.56676E-6	-47.137681
1.566805E-6	-47.142177
1.56685E-6	-47.173779
1.566895E-6	-47.16925
1.56694E-6	-47.180581
1.566985E-6	-47.137681
1.56703E-6	-47.110804
1.567075E-6	-47.121983
1.56712E-6	-47.160207
1.567165E-6	-47.171514
1.56721E-6	-47.185121
1.567255E-6	-47.189666
1.5673E-6	-47.21475
1.567345E-6	-47.235382
1.56739E-6	-47.31422
1.567435E-6	-47.366007
1.56748E-6	-47.396901
1.567525E-6	-47.401673
1.56757E-6	-47.435228
1.567615E-6	-47.461776
1.56766E-6	-47.512913
1.567705E-6	-47.549811
1.56775E-6	-47.574586
1.567795E-6	-47.579558
1.56784E-6	-47.602002
1.567885E-6	-47.644716
1.56793E-6	-47.708303
1.567975E-6	-47.772835
1.56802E-6	-47.835702
1.568065E-6	-47.886124
1.56811E-6	-47.966951
1.568155E-6	-48.04931
1.5682E-6	-48.167302
1.568245E-6	-48.294449
1.56829E-6	-48.383326
1.568335E-6	-48.474059
1.56838E-6	-48.582368
1.568425E-6	-48.703101
1.56847E-6	-48.800846
1.568515E-6	-48.924509
1.56856E-6	-49.023957
1.568605E-6	-49.118639
1.56865E-6	-49.229957
1.568695E-6	-49.366666
1.56874E-6	-49.515582
1.568785E-6	-49.649707
1.56883E-6	-49.783973
1.568875E-6	-49.93962
1.56892E-6	-50.078885
1.568965E-6	-50.228711
1.56901E-6	-50.41962
1.569055E-6	-50.592346
1.5691E-6	-50.749459
1.569145E-6	-50.888957
1.56919E-6	-51.056839
1.569235E-6	-51.206174
1.56928E-6	-51.347775
1.569325E-6	-51.522423
1.56937E-6	-51.660246
1.569415E-6	-51.796672
1.56946E-6	-51.914514
1.569505E-6	-52.073982
1.56955E-6	-52.199709
1.569595E-6	-52.337359
1.56964E-6	-52.433639
1.569685E-6	-52.579036
1.56973E-6	-52.738435
1.569775E-6	-52.848326
1.56982E-6	-53.014645
1.569865E-6	-53.134531
1.56991E-6	-53.242217
1.569955E-6	-53.361107
1.57E-6	-53.479472
