Wavelength (nm)	Power (dBm)
1.525E-6	-49.359166
1.525045E-6	-49.270153
1.52509E-6	-49.172146
1.525135E-6	-49.100949
1.52518E-6	-48.996295
1.525225E-6	-48.900841
1.52527E-6	-48.800846
1.525315E-6	-48.709549
1.52536E-6	-48.635966
1.525405E-6	-48.557372
1.52545E-6	-48.480176
1.525495E-6	-48.383326
1.52554E-6	-48.315025
1.525585E-6	-48.247782
1.52563E-6	-48.153086
1.525675E-6	-48.088285
1.52572E-6	-48.010681
1.525765E-6	-47.939841
1.52581E-6	-47.859513
1.525855E-6	-47.78325
1.5259E-6	-47.736579
1.525945E-6	-47.6675
1.52599E-6	-47.587026
1.526035E-6	-47.537477
1.52608E-6	-47.478754
1.526125E-6	-47.411234
1.52617E-6	-47.344747
1.526215E-6	-47.272304
1.52626E-6	-47.219327
1.526305E-6	-47.166988
1.52635E-6	-47.099654
1.526395E-6	-47.055338
1.52644E-6	-46.974526
1.526485E-6	-46.940041
1.52653E-6	-46.895191
1.526575E-6	-46.838199
1.52662E-6	-46.779876
1.526665E-6	-46.751005
1.52671E-6	-46.693833
1.526755E-6	-46.639407
1.5268E-6	-46.597542
1.526845E-6	-46.556077
1.52689E-6	-46.511113
1.526935E-6	-46.478175
1.52698E-6	-46.424463
1.527025E-6	-46.371407
1.52707E-6	-46.337639
1.527115E-6	-46.309698
1.52716E-6	-46.267201
1.527205E-6	-46.217839
1.52725E-6	-46.17983
1.527295E-6	-46.163641
1.52734E-6	-46.124322
1.527385E-6	-46.097716
1.52743E-6	-46.080069
1.527475E-6	-46.006725
1.52752E-6	-45.980827
1.527565E-6	-45.973948
1.52761E-6	-45.996347
1.527655E-6	-45.938006
1.5277E-6	-45.865326
1.527745E-6	-45.892228
1.52779E-6	-45.84359
1.527835E-6	-45.81533
1.52788E-6	-45.779028
1.527925E-6	-45.767541
1.52797E-6	-45.772461
1.528015E-6	-45.731635
1.52806E-6	-45.696024
1.528105E-6	-45.697636
1.52815E-6	-45.700863
1.528195E-6	-45.686362
1.52824E-6	-45.636783
1.528285E-6	-45.614577
1.52833E-6	-45.635193
1.528375E-6	-45.606673
1.52842E-6	-45.636783
1.528465E-6	-45.58462
1.52851E-6	-45.573635
1.528555E-6	-45.583049
1.5286E-6	-45.539291
1.528645E-6	-45.553308
1.52869E-6	-45.523769
1.528735E-6	-45.485206
1.52878E-6	-45.503673
1.528825E-6	-45.539291
1.52887E-6	-45.488278
1.528915E-6	-45.480601
1.52896E-6	-45.448505
1.529005E-6	-45.443939
1.52905E-6	-45.503673
1.529095E-6	-45.472938
1.52914E-6	-45.456125
1.529185E-6	-45.43634
1.52923E-6	-45.443939
1.529275E-6	-45.418156
1.52932E-6	-45.477534
1.529365E-6	-45.43634
1.52941E-6	-45.460704
1.529455E-6	-45.421181
1.5295E-6	-45.386516
1.529545E-6	-45.416644
1.52959E-6	-45.410601
1.529635E-6	-45.413622
1.52968E-6	-45.410601
1.529725E-6	-45.416644
1.52977E-6	-45.398542
1.529815E-6	-45.386516
1.52986E-6	-45.422695
1.529905E-6	-45.413622
1.52995E-6	-45.401554
1.529995E-6	-45.385015
1.53004E-6	-45.428754
1.530085E-6	-45.400047
1.53013E-6	-45.401554
1.530175E-6	-45.410601
1.53022E-6	-45.395532
1.530265E-6	-45.427238
1.53031E-6	-45.398542
1.530355E-6	-45.385015
1.5304E-6	-45.413622
1.530445E-6	-45.409092
1.53049E-6	-45.424209
1.530535E-6	-45.453076
1.53058E-6	-45.437858
1.530625E-6	-45.43634
1.53067E-6	-45.460704
1.530715E-6	-45.460704
1.53076E-6	-45.439378
1.530805E-6	-45.476002
1.53085E-6	-45.485206
1.530895E-6	-45.462231
1.53094E-6	-45.482136
1.530985E-6	-45.450028
1.53103E-6	-45.482136
1.531075E-6	-45.482136
1.53112E-6	-45.503673
1.531165E-6	-45.511392
1.53121E-6	-45.517576
1.531255E-6	-45.505216
1.5313E-6	-45.517576
1.531345E-6	-45.536182
1.53139E-6	-45.568935
1.531435E-6	-45.539291
1.53148E-6	-45.565805
1.531525E-6	-45.554868
1.53157E-6	-45.564241
1.531615E-6	-45.625666
1.53166E-6	-45.594057
1.531705E-6	-45.587763
1.53175E-6	-45.592483
1.531795E-6	-45.636783
1.53184E-6	-45.649524
1.531885E-6	-45.679933
1.53193E-6	-45.676722
1.531975E-6	-45.678327
1.53202E-6	-45.697636
1.532065E-6	-45.689581
1.53211E-6	-45.710557
1.532155E-6	-45.760991
1.5322E-6	-45.772461
1.532245E-6	-45.767541
1.53229E-6	-45.795491
1.532335E-6	-45.813673
1.53238E-6	-45.826944
1.532425E-6	-45.848596
1.53247E-6	-45.867002
1.532515E-6	-45.867002
1.53256E-6	-45.900669
1.532605E-6	-45.895602
1.53265E-6	-45.938006
1.532695E-6	-45.938006
1.53274E-6	-45.953373
1.532785E-6	-45.991168
1.53283E-6	-46.006725
1.532875E-6	-46.041496
1.53292E-6	-46.051982
1.532965E-6	-46.092415
1.53301E-6	-46.07303
1.533055E-6	-46.127882
1.5331E-6	-46.133227
1.533145E-6	-46.19427
1.53319E-6	-46.206945
1.533235E-6	-46.190655
1.53328E-6	-46.221476
1.533325E-6	-46.225116
1.53337E-6	-46.263525
1.533415E-6	-46.29672
1.53346E-6	-46.317131
1.533505E-6	-46.322715
1.53355E-6	-46.35449
1.533595E-6	-46.40544
1.53364E-6	-46.428277
1.533685E-6	-46.445485
1.53373E-6	-46.468535
1.533775E-6	-46.49752
1.53382E-6	-46.540385
1.533865E-6	-46.579723
1.53391E-6	-46.603498
1.533955E-6	-46.621416
1.534E-6	-46.635403
1.534045E-6	-46.675615
1.53409E-6	-46.687752
1.534135E-6	-46.732546
1.53418E-6	-46.771607
1.534225E-6	-46.771607
1.53427E-6	-46.786087
1.534315E-6	-46.811023
1.53436E-6	-46.888822
1.534405E-6	-46.899443
1.53445E-6	-46.92932
1.534495E-6	-46.944337
1.53454E-6	-46.998395
1.534585E-6	-46.985359
1.53463E-6	-47.035542
1.534675E-6	-47.101882
1.53472E-6	-47.108572
1.534765E-6	-47.128704
1.53481E-6	-47.153437
1.534855E-6	-47.20105
1.5349E-6	-47.207895
1.534945E-6	-47.251497
1.53499E-6	-47.244583
1.535035E-6	-47.283907
1.53508E-6	-47.295541
1.535125E-6	-47.31422
1.53517E-6	-47.375489
1.535215E-6	-47.363639
1.53526E-6	-47.382615
1.535305E-6	-47.442452
1.53535E-6	-47.469044
1.535395E-6	-47.552282
1.53544E-6	-47.559704
1.535485E-6	-47.552282
1.53553E-6	-47.597004
1.535575E-6	-47.62205
1.53562E-6	-47.624563
1.535665E-6	-47.659892
1.53571E-6	-47.670039
1.535755E-6	-47.695511
1.5358E-6	-47.726276
1.535845E-6	-47.739159
1.53589E-6	-47.765041
1.535935E-6	-47.772835
1.53598E-6	-47.798919
1.536025E-6	-47.804155
1.53607E-6	-47.859513
1.536115E-6	-47.883456
1.53616E-6	-47.89414
1.536205E-6	-47.915586
1.53625E-6	-47.9588
1.536295E-6	-47.953375
1.53634E-6	-47.994231
1.536385E-6	-47.994231
1.53643E-6	-48.032713
1.536475E-6	-48.043771
1.53652E-6	-48.035475
1.536565E-6	-48.057633
1.53661E-6	-48.077114
1.536655E-6	-48.088285
1.5367E-6	-48.119156
1.536745E-6	-48.133261
1.53679E-6	-48.124793
1.536835E-6	-48.144578
1.53688E-6	-48.153086
1.536925E-6	-48.204482
1.53697E-6	-48.181564
1.537015E-6	-48.207355
1.53706E-6	-48.215987
1.537105E-6	-48.218867
1.53715E-6	-48.253588
1.537195E-6	-48.268137
1.53724E-6	-48.239087
1.537285E-6	-48.268137
1.53733E-6	-48.256494
1.537375E-6	-48.303256
1.53742E-6	-48.288588
1.537465E-6	-48.303256
1.53751E-6	-48.288588
1.537555E-6	-48.282735
1.5376E-6	-48.329782
1.537645E-6	-48.350526
1.53769E-6	-48.353498
1.537735E-6	-48.368386
1.53778E-6	-48.38632
1.537825E-6	-48.359447
1.53787E-6	-48.404328
1.537915E-6	-48.356471
1.53796E-6	-48.392314
1.538005E-6	-48.380334
1.53805E-6	-48.359447
1.538095E-6	-48.356471
1.53814E-6	-48.356471
1.538185E-6	-48.392314
1.53823E-6	-48.410347
1.538275E-6	-48.37137
1.53832E-6	-48.365404
1.538365E-6	-48.368386
1.53841E-6	-48.38632
1.538455E-6	-48.404328
1.5385E-6	-48.419392
1.538545E-6	-48.437538
1.53859E-6	-48.41336
1.538635E-6	-48.416375
1.53868E-6	-48.437538
1.538725E-6	-48.434508
1.53877E-6	-48.41336
1.538815E-6	-48.45576
1.53886E-6	-48.398317
1.538905E-6	-48.398317
1.53895E-6	-48.401322
1.538995E-6	-48.383326
1.53904E-6	-48.41336
1.539085E-6	-48.398317
1.53913E-6	-48.392314
1.539175E-6	-48.401322
1.53922E-6	-48.449678
1.539265E-6	-48.431481
1.53931E-6	-48.395315
1.539355E-6	-48.416375
1.5394E-6	-48.404328
1.539445E-6	-48.45576
1.53949E-6	-48.410347
1.539535E-6	-48.428456
1.53958E-6	-48.395315
1.539625E-6	-48.389316
1.53967E-6	-48.380334
1.539715E-6	-48.374356
1.53976E-6	-48.365404
1.539805E-6	-48.374356
1.53985E-6	-48.359447
1.539895E-6	-48.341624
1.53994E-6	-48.347557
1.539985E-6	-48.359447
1.54003E-6	-48.359447
1.540075E-6	-48.33866
1.54012E-6	-48.347557
1.540165E-6	-48.332739
1.54021E-6	-48.362425
1.540255E-6	-48.359447
1.5403E-6	-48.359447
1.540345E-6	-48.31208
1.54039E-6	-48.303256
1.540435E-6	-48.317973
1.54048E-6	-48.315025
1.540525E-6	-48.273971
1.54057E-6	-48.291518
1.540615E-6	-48.268137
1.54066E-6	-48.285661
1.540705E-6	-48.294449
1.54075E-6	-48.297383
1.540795E-6	-48.271053
1.54084E-6	-48.279812
1.540885E-6	-48.279812
1.54093E-6	-48.27689
1.540975E-6	-48.291518
1.54102E-6	-48.285661
1.541065E-6	-48.288588
1.54111E-6	-48.233301
1.541155E-6	-48.23041
1.5412E-6	-48.224635
1.541245E-6	-48.215987
1.54129E-6	-48.207355
1.541335E-6	-48.241984
1.54138E-6	-48.190144
1.541425E-6	-48.181564
1.54147E-6	-48.193008
1.541515E-6	-48.190144
1.54156E-6	-48.190144
1.541605E-6	-48.204482
1.54165E-6	-48.198741
1.541695E-6	-48.181564
1.54174E-6	-48.187282
1.541785E-6	-48.187282
1.54183E-6	-48.173001
1.541875E-6	-48.16161
1.54192E-6	-48.164455
1.541965E-6	-48.155925
1.54201E-6	-48.175853
1.542055E-6	-48.155925
1.5421E-6	-48.130437
1.542145E-6	-48.116341
1.54219E-6	-48.116341
1.542235E-6	-48.127614
1.54228E-6	-48.121974
1.542325E-6	-48.133261
1.54237E-6	-48.099486
1.542415E-6	-48.091083
1.54246E-6	-48.150248
1.542505E-6	-48.138916
1.54255E-6	-48.138916
1.542595E-6	-48.10229
1.54264E-6	-48.124793
1.542685E-6	-48.113527
1.54273E-6	-48.116341
1.542775E-6	-48.091083
1.54282E-6	-48.116341
1.542865E-6	-48.079904
1.54291E-6	-48.071539
1.542955E-6	-48.071539
1.543E-6	-48.091083
1.543045E-6	-48.068754
1.54309E-6	-48.054857
1.543135E-6	-48.054857
1.54318E-6	-48.06319
1.543225E-6	-48.091083
1.54327E-6	-48.077114
1.543315E-6	-48.08549
1.54336E-6	-48.077114
1.543405E-6	-48.068754
1.54345E-6	-48.06319
1.543495E-6	-48.065971
1.54354E-6	-48.088285
1.543585E-6	-48.043771
1.54363E-6	-48.04931
1.543675E-6	-48.043771
1.54372E-6	-48.057633
1.543765E-6	-48.04931
1.54381E-6	-48.043771
1.543855E-6	-48.04931
1.5439E-6	-48.043771
1.543945E-6	-48.035475
1.54399E-6	-48.077114
1.544035E-6	-48.079904
1.54408E-6	-48.068754
1.544125E-6	-48.065971
1.54417E-6	-48.099486
1.544215E-6	-48.093882
1.54426E-6	-48.10229
1.544305E-6	-48.06319
1.54435E-6	-48.068754
1.544395E-6	-48.043771
1.54444E-6	-48.041003
1.544485E-6	-48.038238
1.54453E-6	-48.054857
1.544575E-6	-48.065971
1.54462E-6	-48.04931
1.544665E-6	-48.035475
1.54471E-6	-48.065971
1.544755E-6	-48.068754
1.5448E-6	-48.082696
1.544845E-6	-48.082696
1.54489E-6	-48.079904
1.544935E-6	-48.068754
1.54498E-6	-48.091083
1.545025E-6	-48.091083
1.54507E-6	-48.077114
1.545115E-6	-47.349462
1.54516E-6	-41.72954
1.545205E-6	-37.068585
1.54525E-6	-35.073793
1.545295E-6	-34.550642
1.54534E-6	-34.452686
1.545385E-6	-34.46967
1.54543E-6	-34.490382
1.545475E-6	-34.750849
1.54552E-6	-36.466609
1.545565E-6	-40.301184
1.54561E-6	-46.066003
1.545655E-6	-47.896815
1.5457E-6	-48.077114
1.545745E-6	-48.133261
1.54579E-6	-48.124793
1.545835E-6	-48.124793
1.54588E-6	-48.147412
1.545925E-6	-48.150248
1.54597E-6	-48.124793
1.546015E-6	-48.105097
1.54606E-6	-48.121974
1.546105E-6	-48.138916
1.54615E-6	-48.136088
1.546195E-6	-48.121974
1.54624E-6	-48.121974
1.546285E-6	-48.127614
1.54633E-6	-48.141746
1.546375E-6	-48.147412
1.54642E-6	-48.17015
1.546465E-6	-48.173001
1.54651E-6	-48.155925
1.546555E-6	-48.175853
1.5466E-6	-48.184422
1.546645E-6	-48.193008
1.54669E-6	-48.198741
1.546735E-6	-48.181564
1.54678E-6	-48.16161
1.546825E-6	-48.16161
1.54687E-6	-48.178708
1.546915E-6	-48.178708
1.54696E-6	-48.193008
1.547005E-6	-48.17015
1.54705E-6	-48.155925
1.547095E-6	-48.17015
1.54714E-6	-48.193008
1.547185E-6	-48.213108
1.54723E-6	-48.218867
1.547275E-6	-48.215987
1.54732E-6	-48.23041
1.547365E-6	-48.239087
1.54741E-6	-48.244882
1.547455E-6	-48.239087
1.5475E-6	-48.239087
1.547545E-6	-48.23041
1.54759E-6	-48.218867
1.547635E-6	-48.207355
1.54768E-6	-48.218867
1.547725E-6	-48.215987
1.54777E-6	-48.218867
1.547815E-6	-48.210231
1.54786E-6	-48.247782
1.547905E-6	-48.241984
1.54795E-6	-48.256494
1.547995E-6	-48.262312
1.54804E-6	-48.256494
1.548085E-6	-48.271053
1.54813E-6	-48.297383
1.548175E-6	-48.285661
1.54822E-6	-48.279812
1.548265E-6	-48.279812
1.54831E-6	-48.268137
1.548355E-6	-48.265224
1.5484E-6	-48.27689
1.548445E-6	-48.262312
1.54849E-6	-48.256494
1.548535E-6	-48.265224
1.54858E-6	-48.241984
1.548625E-6	-48.265224
1.54867E-6	-48.262312
1.548715E-6	-48.279812
1.54876E-6	-48.27689
1.548805E-6	-48.273971
1.54885E-6	-48.279812
1.548895E-6	-48.300318
1.54894E-6	-48.303256
1.548985E-6	-48.300318
1.54903E-6	-48.31208
1.549075E-6	-48.294449
1.54912E-6	-48.303256
1.549165E-6	-48.306195
1.54921E-6	-48.31208
1.549255E-6	-48.288588
1.5493E-6	-48.27689
1.549345E-6	-48.265224
1.54939E-6	-48.265224
1.549435E-6	-48.294449
1.54948E-6	-48.282735
1.549525E-6	-48.294449
1.54957E-6	-48.300318
1.549615E-6	-48.309136
1.54966E-6	-48.315025
1.549705E-6	-48.332739
1.54975E-6	-48.323873
1.549795E-6	-48.315025
1.54984E-6	-48.294449
1.549885E-6	-48.227522
1.54993E-6	-45.752817
1.549975E-6	-39.150664
1.55002E-6	-35.415132
1.550065E-6	-34.155557
1.55011E-6	-33.930815
1.550155E-6	-33.884891
1.5502E-6	-33.865811
1.550245E-6	-33.962063
1.55029E-6	-34.589202
1.550335E-6	-37.14893
1.55038E-6	-42.123979
1.550425E-6	-47.399286
1.55047E-6	-48.201611
1.550515E-6	-48.309136
1.55056E-6	-48.326827
1.550605E-6	-48.315025
1.55065E-6	-48.326827
1.550695E-6	-48.329782
1.55074E-6	-48.341624
1.550785E-6	-48.323873
1.55083E-6	-48.279812
1.550875E-6	-48.297383
1.55092E-6	-48.285661
1.550965E-6	-48.297383
1.55101E-6	-48.282735
1.551055E-6	-48.27689
1.5511E-6	-48.268137
1.551145E-6	-48.291518
1.55119E-6	-48.309136
1.551235E-6	-48.320922
1.55128E-6	-48.335699
1.551325E-6	-48.320922
1.55137E-6	-48.326827
1.551415E-6	-48.300318
1.55146E-6	-48.315025
1.551505E-6	-48.309136
1.55155E-6	-48.288588
1.551595E-6	-48.285661
1.55164E-6	-48.262312
1.551685E-6	-48.273971
1.55173E-6	-48.27689
1.551775E-6	-48.27689
1.55182E-6	-48.262312
1.551865E-6	-48.250684
1.55191E-6	-48.256494
1.551955E-6	-48.262312
1.552E-6	-48.288588
1.552045E-6	-48.291518
1.55209E-6	-48.309136
1.552135E-6	-48.279812
1.55218E-6	-48.297383
1.552225E-6	-48.309136
1.55227E-6	-48.303256
1.552315E-6	-48.291518
1.55236E-6	-48.268137
1.552405E-6	-48.213108
1.55245E-6	-48.247782
1.552495E-6	-48.23041
1.55254E-6	-48.247782
1.552585E-6	-48.268137
1.55263E-6	-48.247782
1.552675E-6	-48.218867
1.55272E-6	-48.241984
1.552765E-6	-48.271053
1.55281E-6	-48.271053
1.552855E-6	-48.268137
1.5529E-6	-48.271053
1.552945E-6	-48.271053
1.55299E-6	-48.271053
1.553035E-6	-48.271053
1.55308E-6	-48.303256
1.553125E-6	-48.271053
1.55317E-6	-48.247782
1.553215E-6	-48.213108
1.55326E-6	-48.224635
1.553305E-6	-48.233301
1.55335E-6	-48.23041
1.553395E-6	-48.215987
1.55344E-6	-48.207355
1.553485E-6	-48.23041
1.55353E-6	-48.224635
1.553575E-6	-48.236193
1.55362E-6	-48.247782
1.553665E-6	-48.273971
1.55371E-6	-48.247782
1.553755E-6	-48.265224
1.5538E-6	-48.262312
1.553845E-6	-48.259402
1.55389E-6	-48.271053
1.553935E-6	-48.239087
1.55398E-6	-48.227522
1.554025E-6	-48.22175
1.55407E-6	-48.215987
1.554115E-6	-48.23041
1.55416E-6	-48.198741
1.554205E-6	-48.204482
1.55425E-6	-48.187282
1.554295E-6	-48.207355
1.55434E-6	-48.23041
1.554385E-6	-48.227522
1.55443E-6	-48.250684
1.554475E-6	-48.259402
1.55452E-6	-48.239087
1.554565E-6	-48.253588
1.55461E-6	-48.253588
1.554655E-6	-48.253588
1.5547E-6	-48.253588
1.554745E-6	-48.239087
1.55479E-6	-48.213108
1.554835E-6	-48.224635
1.55488E-6	-48.213108
1.554925E-6	-48.187282
1.55497E-6	-48.187282
1.555015E-6	-48.187282
1.55506E-6	-48.181564
1.555105E-6	-48.210231
1.55515E-6	-48.204482
1.555195E-6	-48.22175
1.55524E-6	-48.215987
1.555285E-6	-48.22175
1.55533E-6	-48.233301
1.555375E-6	-48.265224
1.55542E-6	-48.250684
1.555465E-6	-48.233301
1.55551E-6	-48.22175
1.555555E-6	-48.22175
1.5556E-6	-48.218867
1.555645E-6	-48.207355
1.55569E-6	-48.204482
1.555735E-6	-48.198741
1.55578E-6	-48.17015
1.555825E-6	-48.181564
1.55587E-6	-48.190144
1.555915E-6	-48.204482
1.55596E-6	-48.193008
1.556005E-6	-48.207355
1.55605E-6	-48.204482
1.556095E-6	-48.241984
1.55614E-6	-48.250684
1.556185E-6	-48.253588
1.55623E-6	-48.236193
1.556275E-6	-48.23041
1.55632E-6	-48.215987
1.556365E-6	-48.210231
1.55641E-6	-48.224635
1.556455E-6	-48.213108
1.5565E-6	-48.181564
1.556545E-6	-48.190144
1.55659E-6	-48.173001
1.556635E-6	-48.195874
1.55668E-6	-48.193008
1.556725E-6	-48.190144
1.55677E-6	-48.190144
1.556815E-6	-48.22175
1.55686E-6	-48.227522
1.556905E-6	-48.241984
1.55695E-6	-48.253588
1.556995E-6	-48.256494
1.55704E-6	-48.271053
1.557085E-6	-48.250684
1.55713E-6	-48.253588
1.557175E-6	-48.265224
1.55722E-6	-48.250684
1.557265E-6	-48.239087
1.55731E-6	-48.213108
1.557355E-6	-48.195874
1.5574E-6	-48.224635
1.557445E-6	-48.213108
1.55749E-6	-48.239087
1.557535E-6	-48.239087
1.55758E-6	-48.259402
1.557625E-6	-48.259402
1.55767E-6	-48.288588
1.557715E-6	-48.297383
1.55776E-6	-48.31208
1.557805E-6	-48.294449
1.55785E-6	-48.300318
1.557895E-6	-48.31208
1.55794E-6	-48.329782
1.557985E-6	-48.323873
1.55803E-6	-48.31208
1.558075E-6	-48.27689
1.55812E-6	-48.265224
1.558165E-6	-48.27689
1.55821E-6	-48.288588
1.558255E-6	-48.303256
1.5583E-6	-48.303256
1.558345E-6	-48.303256
1.55839E-6	-48.300318
1.558435E-6	-48.326827
1.55848E-6	-48.356471
1.558525E-6	-48.392314
1.55857E-6	-48.377344
1.558615E-6	-48.38632
1.55866E-6	-48.383326
1.558705E-6	-48.395315
1.55875E-6	-48.41336
1.558795E-6	-48.41336
1.55884E-6	-48.401322
1.558885E-6	-48.374356
1.55893E-6	-48.362425
1.558975E-6	-48.38632
1.55902E-6	-48.398317
1.559065E-6	-48.395315
1.55911E-6	-48.422411
1.559155E-6	-48.395315
1.5592E-6	-48.407337
1.559245E-6	-48.461851
1.55929E-6	-48.489367
1.559335E-6	-48.477117
1.55938E-6	-48.483238
1.559425E-6	-48.480176
1.55947E-6	-48.507809
1.559515E-6	-48.520147
1.55956E-6	-48.529423
1.559605E-6	-48.529423
1.55965E-6	-48.535619
1.559695E-6	-48.513973
1.55974E-6	-48.513973
1.559785E-6	-48.523237
1.55983E-6	-48.53872
1.559875E-6	-48.53872
1.55992E-6	-48.544928
1.559965E-6	-48.529423
1.56001E-6	-48.563608
1.560055E-6	-48.598063
1.5601E-6	-48.635966
1.560145E-6	-48.655041
1.56019E-6	-48.651856
1.560235E-6	-48.648673
1.56028E-6	-48.674202
1.560325E-6	-48.677403
1.56037E-6	-48.690233
1.560415E-6	-48.690233
1.56046E-6	-48.674202
1.560505E-6	-48.661419
1.56055E-6	-48.671002
1.560595E-6	-48.699881
1.56064E-6	-48.71924
1.560685E-6	-48.687022
1.56073E-6	-48.687022
1.560775E-6	-48.725712
1.56082E-6	-48.725712
1.560865E-6	-48.758219
1.56091E-6	-48.804142
1.560955E-6	-48.817353
1.561E-6	-48.797552
1.561045E-6	-48.830604
1.56109E-6	-48.840568
1.561135E-6	-48.85389
1.56118E-6	-48.863908
1.561225E-6	-48.850556
1.56127E-6	-48.843895
1.561315E-6	-48.840568
1.56136E-6	-48.857227
1.561405E-6	-48.857227
1.56145E-6	-48.863908
1.561495E-6	-48.87395
1.56154E-6	-48.890738
1.561585E-6	-48.90759
1.56163E-6	-48.92112
1.561675E-6	-48.944898
1.56172E-6	-48.985966
1.561765E-6	-48.965384
1.56181E-6	-49.003194
1.561855E-6	-49.034376
1.5619E-6	-49.023957
1.561945E-6	-49.048306
1.56199E-6	-49.041335
1.562035E-6	-49.051796
1.56208E-6	-49.041335
1.562125E-6	-49.027427
1.56217E-6	-49.048306
1.562215E-6	-49.048306
1.56226E-6	-49.058784
1.562305E-6	-49.072794
1.56235E-6	-49.079815
1.562395E-6	-49.097419
1.56244E-6	-49.115095
1.562485E-6	-49.147094
1.56253E-6	-49.143527
1.562575E-6	-49.157813
1.56262E-6	-49.186527
1.562665E-6	-49.208188
1.56271E-6	-49.229957
1.562755E-6	-49.229957
1.5628E-6	-49.233596
1.562845E-6	-49.219058
1.56289E-6	-49.233596
1.562935E-6	-49.233596
1.56298E-6	-49.229957
1.563025E-6	-49.240882
1.56307E-6	-49.262816
1.563115E-6	-49.266483
1.56316E-6	-49.277501
1.563205E-6	-49.292235
1.56325E-6	-49.314431
1.563295E-6	-49.333014
1.56334E-6	-49.347939
1.563385E-6	-49.359166
1.56343E-6	-49.3968
1.563475E-6	-49.411945
1.56352E-6	-49.411945
1.563565E-6	-49.423339
1.56361E-6	-49.419538
1.563655E-6	-49.423339
1.5637E-6	-49.434763
1.563745E-6	-49.438577
1.56379E-6	-49.446217
1.563835E-6	-49.430951
1.56388E-6	-49.446217
1.563925E-6	-49.480761
1.56397E-6	-49.492337
1.564015E-6	-49.519468
1.56406E-6	-49.50782
1.564105E-6	-49.531148
1.56415E-6	-49.538952
1.564195E-6	-49.582127
1.56424E-6	-49.605859
1.564285E-6	-49.621752
1.56433E-6	-49.621752
1.564375E-6	-49.621752
1.56442E-6	-49.637705
1.564465E-6	-49.645703
1.56451E-6	-49.661743
1.564555E-6	-49.653715
1.5646E-6	-49.641702
1.564645E-6	-49.661743
1.56469E-6	-49.657727
1.564735E-6	-49.677843
1.56478E-6	-49.702105
1.564825E-6	-49.702105
1.56487E-6	-49.714287
1.564915E-6	-49.746941
1.56496E-6	-49.75104
1.565005E-6	-49.783973
1.56505E-6	-49.833845
1.565095E-6	-49.825493
1.56514E-6	-49.846402
1.565185E-6	-49.854795
1.56523E-6	-49.850597
1.565275E-6	-49.867413
1.56532E-6	-49.884296
1.565365E-6	-49.867413
1.56541E-6	-49.880069
1.565455E-6	-49.858997
1.5655E-6	-49.867413
1.565545E-6	-49.913998
1.56559E-6	-49.93534
1.565635E-6	-49.952488
1.56568E-6	-49.948195
1.565725E-6	-49.948195
1.56577E-6	-50.003476
1.565815E-6	-50.036635
1.56586E-6	-50.061231
1.565905E-6	-50.075349
1.56595E-6	-50.061231
1.565995E-6	-50.070932
1.56604E-6	-50.075349
1.566085E-6	-50.100165
1.56613E-6	-50.100165
1.566175E-6	-50.105057
1.56622E-6	-50.070932
1.566265E-6	-50.094836
1.56631E-6	-50.114856
1.566355E-6	-50.124678
1.5664E-6	-50.14933
1.566445E-6	-50.164188
1.56649E-6	-50.169152
1.566535E-6	-50.179098
1.56658E-6	-50.219108
1.566625E-6	-50.259491
1.56667E-6	-50.270108
1.566715E-6	-50.24982
1.56676E-6	-50.270108
1.566805E-6	-50.274732
1.56685E-6	-50.290491
1.566895E-6	-50.31097
1.56694E-6	-50.296531
1.566985E-6	-50.311903
1.56703E-6	-50.317039
1.567075E-6	-50.332483
1.56712E-6	-50.348454
1.567165E-6	-50.369208
1.56721E-6	-50.374413
1.567255E-6	-50.390063
1.5673E-6	-50.390063
1.567345E-6	-50.437355
1.56739E-6	-50.474013
1.567435E-6	-50.502685
1.56748E-6	-50.518806
1.567525E-6	-50.562088
1.56757E-6	-50.583892
1.567615E-6	-50.617305
1.56766E-6	-50.639389
1.567705E-6	-50.689492
1.56775E-6	-50.695094
1.567795E-6	-50.735032
1.56784E-6	-50.735032
1.567885E-6	-50.780535
1.56793E-6	-50.826521
1.567975E-6	-50.892689
1.56802E-6	-50.940423
1.568065E-6	-50.994144
1.56811E-6	-51.043013
1.568155E-6	-51.109786
1.5682E-6	-51.198154
1.568245E-6	-51.28719
1.56829E-6	-51.345407
1.568335E-6	-51.398417
1.56838E-6	-51.505806
1.568425E-6	-51.577029
1.56847E-6	-51.667891
1.568515E-6	-51.753536
1.56856E-6	-51.85486
1.568605E-6	-51.907097
1.56865E-6	-52.035644
1.568695E-6	-52.097148
1.56874E-6	-52.26433
1.568785E-6	-52.36123
1.56883E-6	-52.437444
1.568875E-6	-52.54769
1.56892E-6	-52.626483
1.568965E-6	-52.750691
1.56901E-6	-52.870138
1.569055E-6	-52.974833
1.5691E-6	-53.09361
1.569145E-6	-53.192114
1.56919E-6	-53.316141
1.569235E-6	-53.427529
1.56928E-6	-53.550693
1.569325E-6	-53.649186
1.56937E-6	-53.716111
1.569415E-6	-53.80385
1.56946E-6	-53.907258
1.569505E-6	-54.016473
1.56955E-6	-54.107208
1.569595E-6	-54.207882
1.56964E-6	-54.282912
1.569685E-6	-54.362817
1.56973E-6	-54.441803
1.569775E-6	-54.540747
1.56982E-6	-54.61175
1.569865E-6	-54.692882
1.56991E-6	-54.748256
1.569955E-6	-54.853195
1.57E-6	-54.92819
